%OpenBCI Raw EEG Data
%Number of channels = 4
%Sample Rate = 200 Hz
%Board = OpenBCI_GUI$BoardGanglionBLE
Sample Index, EXG Channel 0, EXG Channel 1, EXG Channel 2, EXG Channel 3, Accel Channel 0, Accel Channel 1, Accel Channel 2, Other, Other, Other, Other, Other, Timestamp, Timestamp (Formatted)
2.0, -6.556044578552246, 74.02010345458984, 9.091696739196777, -0.44878798723220825, 0.19200000166893005, 0.0, 0.0, 0.0, 0.0, 0.0, 0.0, 0.0, 1.6939205099576085E9, 2023-09-05 10:28:29.957
2.0, -18.961292266845703, 256.6842956542969, 2.367356777191162, 2.367356777191162, 0.19200000166893005, 0.0, 0.0, 0.0, 0.0, 0.0, 0.0, 0.0, 1.6939205099576085E9, 2023-09-05 10:28:29.957
3.0, -4.285925388336182, 414.706298828125, 9.237552642822266, 0.5235859751701355, 0.19200000166893005, 0.0, 0.0, 0.0, 0.0, 0.0, 0.0, 0.0, 1.6939205099724376E9, 2023-09-05 10:28:29.972
3.0, 50.11091995239258, 576.494384765625, 9.585363388061523, -0.06731820106506348, 0.19200000166893005, 0.0, 0.0, 0.0, 0.0, 0.0, 0.0, 0.0, 1.6939205099724376E9, 2023-09-05 10:28:29.972
4.0, 59.105377197265625, 650.712646484375, 7.390042304992676, 0.9162755012512207, 0.19200000166893005, 0.0, 0.0, 0.0, 0.0, 0.0, 0.0, 0.0, 1.6939205099727015E9, 2023-09-05 10:28:29.972
4.0, 25.96612548828125, 651.086669921875, 4.903008937835693, 0.7928587794303894, 0.19200000166893005, 0.0, 0.0, 0.0, 0.0, 0.0, 0.0, 0.0, 1.6939205099727015E9, 2023-09-05 10:28:29.972
5.0, 60.201168060302734, 685.7330932617188, 9.641462326049805, -6.757999420166016, 0.19200000166893005, 0.0, 0.0, 0.0, 0.0, 0.0, 0.0, 0.0, 1.6939205099870396E9, 2023-09-05 10:28:29.987
5.0, 80.7780990600586, 735.11474609375, 13.949827194213867, 4.600077152252197, 0.19200000166893005, 0.0, 0.0, 0.0, 0.0, 0.0, 0.0, 0.0, 1.6939205099870396E9, 2023-09-05 10:28:29.987
6.0, 70.0558090209961, 718.4273071289062, 11.354336738586426, 4.996506214141846, 0.19200000166893005, 0.0, 0.0, 0.0, 0.0, 0.0, 0.0, 0.0, 1.6939205100202706E9, 2023-09-05 10:28:30.020
6.0, 85.18370056152344, 733.342041015625, 7.150688648223877, 5.303178310394287, 0.19200000166893005, 0.0, 0.0, 0.0, 0.0, 0.0, 0.0, 0.0, 1.6939205100202706E9, 2023-09-05 10:28:30.020
7.0, 124.43395233154297, 781.4969482421875, 10.172528266906738, 2.7376067638397217, 0.19200000166893005, 0.0, 0.0, 0.0, 0.0, 0.0, 0.0, 0.0, 1.693920510020347E9, 2023-09-05 10:28:30.020
7.0, 88.65432739257812, 767.6294555664062, 9.304871559143066, 0.13089649379253387, 0.19200000166893005, 0.0, 0.0, 0.0, 0.0, 0.0, 0.0, 0.0, 1.693920510020347E9, 2023-09-05 10:28:30.020
8.0, 85.07898712158203, 742.0073852539062, 9.402108192443848, 2.528172254562378, 0.19200000166893005, 0.0, 0.0, 0.0, 0.0, 0.0, 0.0, 0.0, 1.6939205100204103E9, 2023-09-05 10:28:30.020
8.0, 97.7796859741211, 746.31201171875, 6.926294803619385, 3.6613621711730957, 0.19200000166893005, 0.0, 0.0, 0.0, 0.0, 0.0, 0.0, 0.0, 1.6939205100204103E9, 2023-09-05 10:28:30.020
9.0, 70.32134246826172, 744.0156860351562, 5.950181007385254, -3.3584301471710205, 0.19200000166893005, 0.0, 0.0, 0.0, 0.0, 0.0, 0.0, 0.0, 1.693920510021089E9, 2023-09-05 10:28:30.021
9.0, 80.83045959472656, 743.6342163085938, 5.2059407234191895, 4.727233409881592, 0.19200000166893005, 0.0, 0.0, 0.0, 0.0, 0.0, 0.0, 0.0, 1.693920510021089E9, 2023-09-05 10:28:30.021
10.0, 94.57459259033203, 737.1080932617188, 7.958507061004639, 1.630596399307251, 0.19200000166893005, 0.0, 0.9760000705718994, 0.0, 0.0, 0.0, 0.0, 0.0, 1.693920510031478E9, 2023-09-05 10:28:30.031
10.0, 65.80728149414062, 741.7493286132812, 6.073597431182861, 3.747379779815674, 0.19200000166893005, 0.0, 0.9760000705718994, 0.0, 0.0, 0.0, 0.0, 0.0, 1.693920510031478E9, 2023-09-05 10:28:30.031
11.0, 99.57857513427734, 736.3152465820312, 8.194120407104492, 0.991073489189148, 0.19200000166893005, 0.12800000607967377, 0.9760000705718994, 0.0, 0.0, 0.0, 0.0, 0.0, 1.693920510046398E9, 2023-09-05 10:28:30.046
11.0, 128.21124267578125, 796.5650024414062, 11.043924331665039, 5.198461055755615, 0.19200000166893005, 0.12800000607967377, 0.9760000705718994, 0.0, 0.0, 0.0, 0.0, 0.0, 1.693920510046398E9, 2023-09-05 10:28:30.046
12.0, 102.08805084228516, 764.07275390625, 6.2418928146362305, 3.1452558040618896, 0.19200000166893005, 0.12800000607967377, 0.9760000705718994, 0.0, 0.0, 0.0, 0.0, 0.0, 1.693920510062078E9, 2023-09-05 10:28:30.062
12.0, 64.11310577392578, 749.5469970703125, 4.140069484710693, -0.9611542820930481, 0.19200000166893005, 0.12800000607967377, 0.9760000705718994, 0.0, 0.0, 0.0, 0.0, 0.0, 1.693920510062078E9, 2023-09-05 10:28:30.062
13.0, 94.93736267089844, 759.9027709960938, 0.022439399734139442, -1.3201847076416016, 0.19200000166893005, 0.12800000607967377, 0.9760000705718994, 0.0, 0.0, 0.0, 0.0, 0.0, 1.693920510062748E9, 2023-09-05 10:28:30.062
13.0, 113.07213592529297, 775.692626953125, 4.637475967407227, 1.4922200441360474, 0.19200000166893005, 0.12800000607967377, 0.9760000705718994, 0.0, 0.0, 0.0, 0.0, 0.0, 1.693920510062748E9, 2023-09-05 10:28:30.062
14.0, 104.2459716796875, 771.9639892578125, 7.158168315887451, 0.23561370372772217, 0.19200000166893005, 0.12800000607967377, 0.9760000705718994, 0.0, 0.0, 0.0, 0.0, 0.0, 1.6939205100764887E9, 2023-09-05 10:28:30.076
14.0, 94.873779296875, 772.158447265625, 4.618776321411133, -0.28049248456954956, 0.19200000166893005, 0.12800000607967377, 0.9760000705718994, 0.0, 0.0, 0.0, 0.0, 0.0, 1.6939205100764887E9, 2023-09-05 10:28:30.076
15.0, 120.11062622070312, 818.4472045898438, 8.545671463012695, 2.5169527530670166, 0.19200000166893005, 0.12800000607967377, 0.9760000705718994, 0.0, 0.0, 0.0, 0.0, 0.0, 1.6939205100924091E9, 2023-09-05 10:28:30.092
15.0, 119.07093811035156, 811.0272216796875, 10.284725189208984, -0.6844016909599304, 0.19200000166893005, 0.12800000607967377, 0.9760000705718994, 0.0, 0.0, 0.0, 0.0, 0.0, 1.6939205100924091E9, 2023-09-05 10:28:30.092
16.0, 114.35865783691406, 816.9998168945312, 8.272658348083496, -2.0831241607666016, 0.19200000166893005, 0.12800000607967377, 0.9760000705718994, 0.0, 0.0, 0.0, 0.0, 0.0, 1.6939205100927143E9, 2023-09-05 10:28:30.092
16.0, 110.98526763916016, 842.8687133789062, 2.9470412731170654, -2.58427095413208, 0.19200000166893005, 0.12800000607967377, 0.9760000705718994, 0.0, 0.0, 0.0, 0.0, 0.0, 1.6939205100927143E9, 2023-09-05 10:28:30.092
17.0, 118.3005142211914, 853.4227294921875, 7.9809465408325195, 2.58427095413208, 0.19200000166893005, 0.12800000607967377, 0.9760000705718994, 0.0, 0.0, 0.0, 0.0, 0.0, 1.693920510106492E9, 2023-09-05 10:28:30.106
17.0, 149.8316192626953, 863.898193359375, 5.965140342712402, 1.4099422693252563, 0.19200000166893005, 0.12800000607967377, 0.9760000705718994, 0.0, 0.0, 0.0, 0.0, 0.0, 1.693920510106492E9, 2023-09-05 10:28:30.106
18.0, 139.01956176757812, 858.5089721679688, 2.939561367034912, 4.338284015655518, 0.19200000166893005, 0.12800000607967377, 0.9760000705718994, 0.0, 0.0, 0.0, 0.0, 0.0, 1.693920510121848E9, 2023-09-05 10:28:30.121
18.0, 169.7017059326172, 916.7392578125, -2.0831241607666016, 5.901562213897705, 0.19200000166893005, 0.12800000607967377, 0.9760000705718994, 0.0, 0.0, 0.0, 0.0, 0.0, 1.693920510121848E9, 2023-09-05 10:28:30.121
19.0, 170.49830627441406, 921.070068359375, 10.239846229553223, 2.988180160522461, 0.19200000166893005, 0.12800000607967377, 0.9760000705718994, 0.0, 0.0, 0.0, 0.0, 0.0, 1.6939205101369848E9, 2023-09-05 10:28:30.136
19.0, 151.30886840820312, 900.1228637695312, 7.85004997253418, 3.0554983615875244, 0.19200000166893005, 0.12800000607967377, 0.9760000705718994, 0.0, 0.0, 0.0, 0.0, 0.0, 1.6939205101369848E9, 2023-09-05 10:28:30.136
20.0, 167.3268585205078, 916.6719360351562, 7.281585216522217, 1.795151948928833, 0.19200000166893005, 0.12800000607967377, 0.9760000705718994, 0.0, 0.0, 0.0, 0.0, 0.0, 1.6939205101692088E9, 2023-09-05 10:28:30.169
20.0, 133.1142578125, 901.29345703125, 10.576436996459961, -3.018099308013916, 0.19200000166893005, 0.12800000607967377, 0.9760000705718994, 0.0, 0.0, 0.0, 0.0, 0.0, 1.6939205101692088E9, 2023-09-05 10:28:30.169
21.0, 120.6267318725586, 888.0504760742188, 5.867903232574463, 2.8385841846466064, 0.19200000166893005, 0.12800000607967377, 0.9760000705718994, 0.0, 0.0, 0.0, 0.0, 0.0, 1.6939205101697557E9, 2023-09-05 10:28:30.169
21.0, 159.1888427734375, 889.9166870117188, 10.26976490020752, -1.6941746473312378, 0.19200000166893005, 0.12800000607967377, 0.9760000705718994, 0.0, 0.0, 0.0, 0.0, 0.0, 1.6939205101697557E9, 2023-09-05 10:28:30.169
22.0, 162.4949188232422, 870.495361328125, 5.714567184448242, 0.17951519787311554, 0.19200000166893005, 0.12800000607967377, 0.9760000705718994, 0.0, 0.0, 0.0, 0.0, 0.0, 1.6939205101704776E9, 2023-09-05 10:28:30.170
22.0, 89.03205871582031, 817.242919921875, 10.153828620910645, 2.3262178897857666, 0.19200000166893005, 0.12800000607967377, 0.9760000705718994, 0.0, 0.0, 0.0, 0.0, 0.0, 1.6939205101704776E9, 2023-09-05 10:28:30.170
23.0, 115.65640258789062, 811.9734497070312, 11.518892288208008, -0.96489417552948, 0.19200000166893005, 0.12800000607967377, 0.9760000705718994, 0.0, 0.0, 0.0, 0.0, 0.0, 1.6939205101714375E9, 2023-09-05 10:28:30.171
23.0, 106.53852844238281, 794.0742797851562, 5.482693195343018, 0.6657021641731262, 0.19200000166893005, 0.12800000607967377, 0.9760000705718994, 0.0, 0.0, 0.0, 0.0, 0.0, 1.6939205101714375E9, 2023-09-05 10:28:30.171
24.0, 92.62984466552734, 759.4764404296875, 9.263731956481934, -1.3650634288787842, 0.19200000166893005, 0.12800000607967377, 0.9760000705718994, 0.0, 0.0, 0.0, 0.0, 0.0, 1.693920510182101E9, 2023-09-05 10:28:30.182
24.0, 89.82865905761719, 745.6687622070312, 8.957060813903809, 3.235013484954834, 0.19200000166893005, 0.12800000607967377, 0.9760000705718994, 0.0, 0.0, 0.0, 0.0, 0.0, 1.693920510182101E9, 2023-09-05 10:28:30.182
25.0, 116.64373779296875, 753.6085205078125, 8.257699012756348, -1.1032705307006836, 0.19200000166893005, 0.12800000607967377, 0.9760000705718994, 0.0, 0.0, 0.0, 0.0, 0.0, 1.6939205101827796E9, 2023-09-05 10:28:30.182
25.0, 93.18708801269531, 756.3536376953125, 10.931727409362793, -0.04861870035529137, 0.19200000166893005, 0.12800000607967377, 0.9760000705718994, 0.0, 0.0, 0.0, 0.0, 0.0, 1.6939205101827796E9, 2023-09-05 10:28:30.182
26.0, 86.86665344238281, 716.3329467773438, 10.692374229431152, -2.341177463531494, 0.19200000166893005, 0.12800000607967377, 0.9760000705718994, 0.0, 0.0, 0.0, 0.0, 0.0, 1.6939205101964004E9, 2023-09-05 10:28:30.196
26.0, 88.75530242919922, 707.215087890625, 4.951627731323242, 1.9335283041000366, 0.19200000166893005, 0.12800000607967377, 0.9760000705718994, 0.0, 0.0, 0.0, 0.0, 0.0, 1.6939205101964004E9, 2023-09-05 10:28:30.196
27.0, 94.98597717285156, 702.7982788085938, 7.221746921539307, 4.596336841583252, 0.19200000166893005, 0.12800000607967377, 0.9760000705718994, 0.0, 0.0, 0.0, 0.0, 0.0, 1.6939205102123008E9, 2023-09-05 10:28:30.212
27.0, 73.77326965332031, 686.0846557617188, 2.8759829998016357, 6.309211254119873, 0.19200000166893005, 0.12800000607967377, 0.9760000705718994, 0.0, 0.0, 0.0, 0.0, 0.0, 1.6939205102123008E9, 2023-09-05 10:28:30.212
28.0, 68.30179595947266, 670.1937866210938, 10.520339012145996, -5.493913173675537, 0.19200000166893005, 0.12800000607967377, 0.9760000705718994, 0.0, 0.0, 0.0, 0.0, 0.0, 1.6939205102129357E9, 2023-09-05 10:28:30.212
28.0, 50.94865798950195, 645.53662109375, 2.692728042602539, -4.256006240844727, 0.19200000166893005, 0.12800000607967377, 0.9760000705718994, 0.0, 0.0, 0.0, 0.0, 0.0, 1.6939205102129357E9, 2023-09-05 10:28:30.212
29.0, 84.87702941894531, 674.0982666015625, 4.6075568199157715, 5.063824653625488, 0.19200000166893005, 0.12800000607967377, 0.9760000705718994, 0.0, 0.0, 0.0, 0.0, 0.0, 1.6939205102264347E9, 2023-09-05 10:28:30.226
29.0, 90.64395141601562, 690.6248779296875, 13.276644706726074, 3.0667178630828857, 0.19200000166893005, 0.12800000607967377, 0.9760000705718994, 0.0, 0.0, 0.0, 0.0, 0.0, 1.6939205102264347E9, 2023-09-05 10:28:30.226
30.0, 99.8104476928711, 679.1022338867188, 8.182901382446289, -1.3127049207687378, 0.19200000166893005, 0.12800000607967377, 0.9600000381469727, 0.0, 0.0, 0.0, 0.0, 0.0, 1.6939205102422972E9, 2023-09-05 10:28:30.242
30.0, 66.2448501586914, 644.149169921875, 12.704440116882324, -0.36651018261909485, 0.19200000166893005, 0.12800000607967377, 0.9600000381469727, 0.0, 0.0, 0.0, 0.0, 0.0, 1.6939205102422972E9, 2023-09-05 10:28:30.242
31.0, 48.66731643676758, 640.207275390625, 9.951873779296875, -0.8900961875915527, 0.19200000166893005, 0.12800000607967377, 0.9600000381469727, 0.0, 0.0, 0.0, 0.0, 0.0, 1.6939205102427204E9, 2023-09-05 10:28:30.242
31.0, 113.89117431640625, 672.3292846679688, 8.081923484802246, 0.3702501058578491, 0.19200000166893005, 0.12800000607967377, 0.9600000381469727, 0.0, 0.0, 0.0, 0.0, 0.0, 1.6939205102427204E9, 2023-09-05 10:28:30.242
32.0, 58.95952224731445, 664.9579467773438, 9.895774841308594, 4.297144889831543, 0.19200000166893005, 0.12800000607967377, 0.9600000381469727, 0.0, 0.0, 0.0, 0.0, 0.0, 1.693920510256458E9, 2023-09-05 10:28:30.256
32.0, 98.31822967529297, 663.0805053710938, 5.377975940704346, 2.3523969650268555, 0.19200000166893005, 0.12800000607967377, 0.9600000381469727, 0.0, 0.0, 0.0, 0.0, 0.0, 1.693920510256458E9, 2023-09-05 10:28:30.256
33.0, 90.81224822998047, 675.3175048828125, 10.33708381652832, 5.658468723297119, 0.19200000166893005, 0.12800000607967377, 0.9600000381469727, 0.0, 0.0, 0.0, 0.0, 0.0, 1.693920510271999E9, 2023-09-05 10:28:30.271
33.0, 91.45551300048828, 661.3751220703125, 9.215113639831543, 2.0457253456115723, 0.19200000166893005, 0.12800000607967377, 0.9600000381469727, 0.0, 0.0, 0.0, 0.0, 0.0, 1.693920510271999E9, 2023-09-05 10:28:30.271
34.0, 75.96110534667969, 665.0514526367188, 7.236706256866455, 1.1331896781921387, 0.19200000166893005, 0.12800000607967377, 0.9600000381469727, 0.0, 0.0, 0.0, 0.0, 0.0, 1.69392051027281E9, 2023-09-05 10:28:30.272
34.0, 49.16846466064453, 647.93017578125, 6.541085243225098, 0.0, 0.19200000166893005, 0.12800000607967377, 0.9600000381469727, 0.0, 0.0, 0.0, 0.0, 0.0, 1.69392051027281E9, 2023-09-05 10:28:30.272
35.0, 84.26742553710938, 674.9210205078125, 13.863809585571289, 3.15647554397583, 0.19200000166893005, 0.12800000607967377, 0.9600000381469727, 0.0, 0.0, 0.0, 0.0, 0.0, 1.6939205102864559E9, 2023-09-05 10:28:30.286
35.0, 100.1096420288086, 669.6552734375, 8.55315113067627, 3.2275335788726807, 0.19200000166893005, 0.12800000607967377, 0.9600000381469727, 0.0, 0.0, 0.0, 0.0, 0.0, 1.6939205102864559E9, 2023-09-05 10:28:30.286
36.0, 104.40678405761719, 665.9677124023438, 6.638322353363037, -2.6852481365203857, 0.19200000166893005, 0.12800000607967377, 0.9600000381469727, 0.0, 0.0, 0.0, 0.0, 0.0, 1.693920510302199E9, 2023-09-05 10:28:30.302
36.0, 97.34585571289062, 680.2728271484375, 9.592843055725098, 1.6979146003723145, 0.19200000166893005, 0.12800000607967377, 0.9600000381469727, 0.0, 0.0, 0.0, 0.0, 0.0, 1.693920510302199E9, 2023-09-05 10:28:30.302
37.0, 65.69882202148438, 680.385009765625, 5.363016605377197, -2.2738592624664307, 0.19200000166893005, 0.12800000607967377, 0.9600000381469727, 0.0, 0.0, 0.0, 0.0, 0.0, 1.6939205103027627E9, 2023-09-05 10:28:30.302
37.0, 102.25634765625, 689.1849975585938, 10.176267623901367, 1.1070103645324707, 0.19200000166893005, 0.12800000607967377, 0.9600000381469727, 0.0, 0.0, 0.0, 0.0, 0.0, 1.6939205103027627E9, 2023-09-05 10:28:30.302
38.0, 75.29540252685547, 682.4943237304688, 10.045371055603027, 4.151288986206055, 0.19200000166893005, 0.12800000607967377, 0.9600000381469727, 0.0, 0.0, 0.0, 0.0, 0.0, 1.6939205103165703E9, 2023-09-05 10:28:30.316
38.0, 88.77400207519531, 685.5872192382812, 10.292204856872559, -1.047171950340271, 0.19200000166893005, 0.12800000607967377, 0.9600000381469727, 0.0, 0.0, 0.0, 0.0, 0.0, 1.6939205103165703E9, 2023-09-05 10:28:30.316
39.0, 79.76084899902344, 683.272216796875, 12.502485275268555, 0.7442401051521301, 0.19200000166893005, 0.12800000607967377, 0.9600000381469727, 0.0, 0.0, 0.0, 0.0, 0.0, 1.6939205103320968E9, 2023-09-05 10:28:30.332
39.0, 92.1399154663086, 677.1500244140625, 6.19327449798584, 4.4430012702941895, 0.19200000166893005, 0.12800000607967377, 0.9600000381469727, 0.0, 0.0, 0.0, 0.0, 0.0, 1.6939205103320968E9, 2023-09-05 10:28:30.332
40.0, 115.34599304199219, 721.9203491210938, 8.388595581054688, 3.3247711658477783, 0.19200000166893005, 0.12800000607967377, 0.9760000705718994, 0.0, 0.0, 0.0, 0.0, 0.0, 1.6939205103328238E9, 2023-09-05 10:28:30.332
40.0, 76.41363525390625, 684.2296752929688, 9.929434776306152, -0.30667179822921753, 0.19200000166893005, 0.12800000607967377, 0.9760000705718994, 0.0, 0.0, 0.0, 0.0, 0.0, 1.6939205103328238E9, 2023-09-05 10:28:30.332
41.0, 67.30697631835938, 684.1436157226562, 10.976606369018555, 4.6075568199157715, 0.19200000166893005, 0.12800000607967377, 0.9760000705718994, 0.0, 0.0, 0.0, 0.0, 0.0, 1.6939205103628109E9, 2023-09-05 10:28:30.362
41.0, 108.77499389648438, 684.8280639648438, 3.4407079219818115, 0.4151288866996765, 0.19200000166893005, 0.12800000607967377, 0.9760000705718994, 0.0, 0.0, 0.0, 0.0, 0.0, 1.6939205103628109E9, 2023-09-05 10:28:30.362
42.0, 65.79605865478516, 664.3483276367188, 4.517799377441406, 1.6193766593933105, 0.19200000166893005, 0.12800000607967377, 0.9760000705718994, 0.0, 0.0, 0.0, 0.0, 0.0, 1.693920510363613E9, 2023-09-05 10:28:30.363
42.0, 81.52981567382812, 696.6947631835938, 8.717706680297852, 1.742793321609497, 0.19200000166893005, 0.12800000607967377, 0.9760000705718994, 0.0, 0.0, 0.0, 0.0, 0.0, 1.693920510363613E9, 2023-09-05 10:28:30.363
43.0, 68.78424072265625, 684.162353515625, 9.648941993713379, 1.2341669797897339, 0.19200000166893005, 0.12800000607967377, 0.9760000705718994, 0.0, 0.0, 0.0, 0.0, 0.0, 1.6939205103642273E9, 2023-09-05 10:28:30.364
43.0, 102.08805084228516, 688.1378784179688, 7.262885570526123, 1.3089649677276611, 0.19200000166893005, 0.12800000607967377, 0.9760000705718994, 0.0, 0.0, 0.0, 0.0, 0.0, 1.6939205103642273E9, 2023-09-05 10:28:30.364
44.0, 94.88874053955078, 677.9204711914062, 9.809757232666016, 3.6239631175994873, 0.19200000166893005, 0.12800000607967377, 0.9760000705718994, 0.0, 0.0, 0.0, 0.0, 0.0, 1.6939205103929296E9, 2023-09-05 10:28:30.392
44.0, 85.10516357421875, 667.1083984375, 5.80058479309082, -1.0060330629348755, 0.19200000166893005, 0.12800000607967377, 0.9760000705718994, 0.0, 0.0, 0.0, 0.0, 0.0, 1.6939205103929296E9, 2023-09-05 10:28:30.392
45.0, 105.41655731201172, 708.6736450195312, 7.610696315765381, 0.9162755012512207, 0.19200000166893005, 0.12800000607967377, 0.9760000705718994, 0.0, 0.0, 0.0, 0.0, 0.0, 1.693920510393408E9, 2023-09-05 10:28:30.393
45.0, 64.9620590209961, 701.8670043945312, 7.236706256866455, 0.011219699867069721, 0.19200000166893005, 0.12800000607967377, 0.9760000705718994, 0.0, 0.0, 0.0, 0.0, 0.0, 1.693920510393408E9, 2023-09-05 10:28:30.393
46.0, 77.33739471435547, 665.2272338867188, 9.099176406860352, -1.7614928483963013, 0.19200000166893005, 0.12800000607967377, 0.9760000705718994, 0.0, 0.0, 0.0, 0.0, 0.0, 1.6939205103944013E9, 2023-09-05 10:28:30.394
46.0, 87.31544494628906, 693.5158081054688, 6.750519275665283, -0.6021239161491394, 0.19200000166893005, 0.12800000607967377, 0.9760000705718994, 0.0, 0.0, 0.0, 0.0, 0.0, 1.6939205103944013E9, 2023-09-05 10:28:30.394
47.0, 90.48313903808594, 696.2796020507812, 7.3002848625183105, -1.4361215829849243, 0.19200000166893005, 0.12800000607967377, 0.9760000705718994, 0.0, 0.0, 0.0, 0.0, 0.0, 1.6939205104064598E9, 2023-09-05 10:28:30.406
47.0, 86.0401382446289, 668.5819091796875, 6.903855323791504, -2.472073793411255, 0.19200000166893005, 0.12800000607967377, 0.9760000705718994, 0.0, 0.0, 0.0, 0.0, 0.0, 1.6939205104064598E9, 2023-09-05 10:28:30.406
48.0, 79.92913818359375, 669.7113647460938, 5.924001693725586, 1.207987666130066, 0.19200000166893005, 0.12800000607967377, 0.9760000705718994, 0.0, 0.0, 0.0, 0.0, 0.0, 1.6939205104220352E9, 2023-09-05 10:28:30.422
48.0, 89.54068756103516, 700.079345703125, 2.9769604206085205, 0.8900961875915527, 0.19200000166893005, 0.12800000607967377, 0.9760000705718994, 0.0, 0.0, 0.0, 0.0, 0.0, 1.6939205104220352E9, 2023-09-05 10:28:30.422
49.0, 82.93228149414062, 672.70703125, 8.512012481689453, 0.4001692831516266, 0.19200000166893005, 0.12800000607967377, 0.9760000705718994, 0.0, 0.0, 0.0, 0.0, 0.0, 1.693920510422696E9, 2023-09-05 10:28:30.422
49.0, 64.59555053710938, 687.7713623046875, 2.288818836212158, 2.5356521606445312, 0.19200000166893005, 0.12800000607967377, 0.9760000705718994, 0.0, 0.0, 0.0, 0.0, 0.0, 1.693920510422696E9, 2023-09-05 10:28:30.422
50.0, 111.32933807373047, 707.7947387695312, 6.013759136199951, 4.779592037200928, 0.19200000166893005, 0.12800000607967377, 0.9600000381469727, 0.0, 0.0, 0.0, 0.0, 0.0, 1.6939205104365733E9, 2023-09-05 10:28:30.436
50.0, 80.07499694824219, 708.4342651367188, 10.999045372009277, -0.13837629556655884, 0.19200000166893005, 0.12800000607967377, 0.9600000381469727, 0.0, 0.0, 0.0, 0.0, 0.0, 1.6939205104365733E9, 2023-09-05 10:28:30.436
51.0, 107.20049285888672, 709.8143310546875, 5.131142616271973, -5.149842262268066, 0.19200000166893005, 0.12800000607967377, 0.9600000381469727, 0.0, 0.0, 0.0, 0.0, 0.0, 1.6939205104521136E9, 2023-09-05 10:28:30.452
51.0, 79.34945678710938, 680.7141723632812, 8.886002540588379, -2.7114274501800537, 0.19200000166893005, 0.12800000607967377, 0.9600000381469727, 0.0, 0.0, 0.0, 0.0, 0.0, 1.6939205104521136E9, 2023-09-05 10:28:30.452
52.0, 101.62429809570312, 700.255126953125, 7.6219162940979, 1.6193766593933105, 0.19200000166893005, 0.12800000607967377, 0.9600000381469727, 0.0, 0.0, 0.0, 0.0, 0.0, 1.6939205104527476E9, 2023-09-05 10:28:30.452
52.0, 89.03205871582031, 719.50439453125, 4.831950664520264, 3.971773862838745, 0.19200000166893005, 0.12800000607967377, 0.9600000381469727, 0.0, 0.0, 0.0, 0.0, 0.0, 1.6939205104527476E9, 2023-09-05 10:28:30.452
53.0, 110.04655456542969, 698.0859985351562, 5.493913173675537, -2.172881841659546, 0.19200000166893005, 0.12800000607967377, 0.9600000381469727, 0.0, 0.0, 0.0, 0.0, 0.0, 1.693920510466482E9, 2023-09-05 10:28:30.466
53.0, 93.83409118652344, 679.6707153320312, 6.926294803619385, 2.7937052249908447, 0.19200000166893005, 0.12800000607967377, 0.9600000381469727, 0.0, 0.0, 0.0, 0.0, 0.0, 1.693920510466482E9, 2023-09-05 10:28:30.466
54.0, 131.32284545898438, 730.52587890625, 2.7263870239257812, -0.8639168739318848, 0.19200000166893005, 0.12800000607967377, 0.9600000381469727, 0.0, 0.0, 0.0, 0.0, 0.0, 1.6939205104821408E9, 2023-09-05 10:28:30.482
54.0, 84.02806854248047, 713.2811889648438, 6.488726615905762, 1.361323595046997, 0.19200000166893005, 0.12800000607967377, 0.9600000381469727, 0.0, 0.0, 0.0, 0.0, 0.0, 1.6939205104821408E9, 2023-09-05 10:28:30.482
55.0, 89.29385375976562, 720.7086181640625, 5.793105125427246, 2.63288950920105, 0.19200000166893005, 0.12800000607967377, 0.9600000381469727, 0.0, 0.0, 0.0, 0.0, 0.0, 1.693920510482667E9, 2023-09-05 10:28:30.482
55.0, 116.74845886230469, 725.0394287109375, 9.974312782287598, 1.316444754600525, 0.19200000166893005, 0.12800000607967377, 0.9600000381469727, 0.0, 0.0, 0.0, 0.0, 0.0, 1.693920510482667E9, 2023-09-05 10:28:30.482
56.0, 82.02348327636719, 683.8257446289062, 0.8377375602722168, -1.2827856540679932, 0.19200000166893005, 0.12800000607967377, 0.9600000381469727, 0.0, 0.0, 0.0, 0.0, 0.0, 1.6939205104964516E9, 2023-09-05 10:28:30.496
56.0, 65.541748046875, 677.0902099609375, 6.851496696472168, 4.775852203369141, 0.19200000166893005, 0.12800000607967377, 0.9600000381469727, 0.0, 0.0, 0.0, 0.0, 0.0, 1.6939205104964516E9, 2023-09-05 10:28:30.496
57.0, 85.45297241210938, 664.819580078125, 6.488726615905762, -2.3823163509368896, 0.19200000166893005, 0.12800000607967377, 0.9600000381469727, 0.0, 0.0, 0.0, 0.0, 0.0, 1.6939205105120895E9, 2023-09-05 10:28:30.512
57.0, 108.25514221191406, 680.68798828125, 3.4332282543182373, 0.43008849024772644, 0.19200000166893005, 0.12800000607967377, 0.9600000381469727, 0.0, 0.0, 0.0, 0.0, 0.0, 1.6939205105120895E9, 2023-09-05 10:28:30.512
58.0, 65.63898468017578, 645.1888427734375, 5.9688801765441895, 1.630596399307251, 0.19200000166893005, 0.12800000607967377, 0.9600000381469727, 0.0, 0.0, 0.0, 0.0, 0.0, 1.6939205105127575E9, 2023-09-05 10:28:30.512
58.0, 82.45357513427734, 707.4768676757812, 6.118476390838623, -1.4660407304763794, 0.19200000166893005, 0.12800000607967377, 0.9600000381469727, 0.0, 0.0, 0.0, 0.0, 0.0, 1.6939205105127575E9, 2023-09-05 10:28:30.512
59.0, 58.98944091796875, 665.9752197265625, 8.657868385314941, -0.5946440696716309, 0.19200000166893005, 0.12800000607967377, 0.9600000381469727, 0.0, 0.0, 0.0, 0.0, 0.0, 1.6939205105264552E9, 2023-09-05 10:28:30.526
59.0, 78.37334442138672, 680.4934692382812, 4.757152557373047, 5.217160224914551, 0.19200000166893005, 0.12800000607967377, 0.9600000381469727, 0.0, 0.0, 0.0, 0.0, 0.0, 1.6939205105264552E9, 2023-09-05 10:28:30.526
60.0, 71.69013977050781, 666.4090576171875, 9.200154304504395, 3.889495849609375, 0.19200000166893005, 0.12800000607967377, 0.9600000381469727, 0.0, 0.0, 0.0, 0.0, 0.0, 1.6939205105741568E9, 2023-09-05 10:28:30.574
60.0, 79.48409271240234, 693.5345458984375, 8.179161071777344, 3.3359906673431396, 0.19200000166893005, 0.12800000607967377, 0.9600000381469727, 0.0, 0.0, 0.0, 0.0, 0.0, 1.6939205105741568E9, 2023-09-05 10:28:30.574
61.0, 82.23666381835938, 674.6817016601562, 7.7902116775512695, -2.4832935333251953, 0.19200000166893005, 0.12800000607967377, 0.9600000381469727, 0.0, 0.0, 0.0, 0.0, 0.0, 1.6939205105748105E9, 2023-09-05 10:28:30.574
61.0, 76.86616516113281, 736.6967163085938, 6.069857597351074, 3.3023316860198975, 0.19200000166893005, 0.12800000607967377, 0.9600000381469727, 0.0, 0.0, 0.0, 0.0, 0.0, 1.6939205105748105E9, 2023-09-05 10:28:30.574
62.0, 112.49993133544922, 851.4031982421875, 8.99445915222168, 1.252866506576538, 0.19200000166893005, 0.12800000607967377, 0.9600000381469727, 0.0, 0.0, 0.0, 0.0, 0.0, 1.693920510575559E9, 2023-09-05 10:28:30.575
62.0, 116.93170928955078, 926.6911010742188, 4.873089790344238, -0.7778992056846619, 0.19200000166893005, 0.12800000607967377, 0.9600000381469727, 0.0, 0.0, 0.0, 0.0, 0.0, 1.693920510575559E9, 2023-09-05 10:28:30.575
63.0, 210.14871215820312, 980.9420776367188, 3.47810697555542, -3.777298927307129, 0.19200000166893005, 0.12800000607967377, 0.9600000381469727, 0.0, 0.0, 0.0, 0.0, 0.0, 1.6939205105763679E9, 2023-09-05 10:28:30.576
63.0, 262.4362487792969, 915.2021484375, 4.8843092918396, 1.9223085641860962, 0.19200000166893005, 0.12800000607967377, 0.9600000381469727, 0.0, 0.0, 0.0, 0.0, 0.0, 1.6939205105763679E9, 2023-09-05 10:28:30.576
64.0, 254.45156860351562, 690.5986938476562, 7.292804718017578, 2.7899653911590576, 0.19200000166893005, 0.12800000607967377, 0.9600000381469727, 0.0, 0.0, 0.0, 0.0, 0.0, 1.693920510587263E9, 2023-09-05 10:28:30.587
64.0, 189.69894409179688, 930.1785888671875, 6.671981334686279, -2.0606849193573, 0.19200000166893005, 0.12800000607967377, 0.9600000381469727, 0.0, 0.0, 0.0, 0.0, 0.0, 1.693920510587263E9, 2023-09-05 10:28:30.587
65.0, 13.467379570007324, 1013.0902709960938, 11.563770294189453, 2.801185131072998, 0.19200000166893005, 0.12800000607967377, 0.9600000381469727, 0.0, 0.0, 0.0, 0.0, 0.0, 1.6939205105878117E9, 2023-09-05 10:28:30.587
65.0, -31.680692672729492, 933.5463256835938, 9.267472267150879, 1.6642554998397827, 0.19200000166893005, 0.12800000607967377, 0.9600000381469727, 0.0, 0.0, 0.0, 0.0, 0.0, 1.6939205105878117E9, 2023-09-05 10:28:30.587
66.0, -13.63941478729248, 1034.56103515625, 11.043924331665039, 2.255159616470337, 0.19200000166893005, 0.12800000607967377, 0.9600000381469727, 0.0, 0.0, 0.0, 0.0, 0.0, 1.6939205106020815E9, 2023-09-05 10:28:30.602
66.0, 17.498991012573242, 1170.2520751953125, 9.906994819641113, 4.43178129196167, 0.19200000166893005, 0.12800000607967377, 0.9600000381469727, 0.0, 0.0, 0.0, 0.0, 0.0, 1.6939205106020815E9, 2023-09-05 10:28:30.602
67.0, -22.50297737121582, 1249.9979248046875, 9.540484428405762, 0.34781068563461304, 0.19200000166893005, 0.12800000607967377, 0.9600000381469727, 0.0, 0.0, 0.0, 0.0, 0.0, 1.6939205106027489E9, 2023-09-05 10:28:30.602
67.0, 1.1855483055114746, 1417.4482421875, 9.817237854003906, 0.14211620390415192, 0.19200000166893005, 0.12800000607967377, 0.9600000381469727, 0.0, 0.0, 0.0, 0.0, 0.0, 1.6939205106027489E9, 2023-09-05 10:28:30.602
68.0, 10.763432502746582, 1528.4185791015625, 6.492466449737549, 3.1639554500579834, 0.19200000166893005, 0.12800000607967377, 0.9600000381469727, 0.0, 0.0, 0.0, 0.0, 0.0, 1.6939205106164749E9, 2023-09-05 10:28:30.616
68.0, 73.76578521728516, 1642.2685546875, 2.258899688720703, 1.7240939140319824, 0.19200000166893005, 0.12800000607967377, 0.9600000381469727, 0.0, 0.0, 0.0, 0.0, 0.0, 1.6939205106164749E9, 2023-09-05 10:28:30.616
69.0, 51.44606399536133, 1674.6075439453125, 8.182901382446289, -2.857283592224121, 0.19200000166893005, 0.12800000607967377, 0.9600000381469727, 0.0, 0.0, 0.0, 0.0, 0.0, 1.693920510632043E9, 2023-09-05 10:28:30.632
69.0, 110.7720947265625, 1752.6854248046875, 7.509718894958496, -0.21317429840564728, 0.19200000166893005, 0.12800000607967377, 0.9600000381469727, 0.0, 0.0, 0.0, 0.0, 0.0, 1.693920510632043E9, 2023-09-05 10:28:30.632
70.0, 101.47096252441406, 1730.4666748046875, 8.396075248718262, -3.1078567504882812, 0.19200000166893005, 0.12800000607967377, 0.9760000705718994, 0.0, 0.0, 0.0, 0.0, 0.0, 1.693920510632776E9, 2023-09-05 10:28:30.632
70.0, 46.169063568115234, 1708.8463134765625, 12.581023216247559, 0.22439399361610413, 0.19200000166893005, 0.12800000607967377, 0.9760000705718994, 0.0, 0.0, 0.0, 0.0, 0.0, 1.693920510632776E9, 2023-09-05 10:28:30.632
71.0, 104.95281219482422, 1759.570556640625, 10.194967269897461, 2.5693113803863525, 0.19200000166893005, 0.12800000607967377, 0.9760000705718994, 0.0, 0.0, 0.0, 0.0, 0.0, 1.6939205106463723E9, 2023-09-05 10:28:30.646
71.0, 101.10819244384766, 1736.398193359375, 10.729772567749023, 2.4645941257476807, 0.19200000166893005, 0.12800000607967377, 0.9760000705718994, 0.0, 0.0, 0.0, 0.0, 0.0, 1.6939205106463723E9, 2023-09-05 10:28:30.646
72.0, 70.52703094482422, 1728.252685546875, 8.856082916259766, 1.0097730159759521, 0.19200000166893005, 0.12800000607967377, 0.9760000705718994, 0.0, 0.0, 0.0, 0.0, 0.0, 1.6939205106620631E9, 2023-09-05 10:28:30.662
72.0, 51.29646682739258, 1719.778076171875, 4.618776321411133, 0.9013158679008484, 0.19200000166893005, 0.12800000607967377, 0.9760000705718994, 0.0, 0.0, 0.0, 0.0, 0.0, 1.6939205106620631E9, 2023-09-05 10:28:30.662
73.0, 105.65217590332031, 1745.1046142578125, 12.782978057861328, 0.12341669946908951, 0.19200000166893005, 0.12800000607967377, 0.9760000705718994, 0.0, 0.0, 0.0, 0.0, 0.0, 1.6939205106626968E9, 2023-09-05 10:28:30.662
73.0, 95.049560546875, 1739.8314208984375, 6.597183704376221, -1.742793321609497, 0.19200000166893005, 0.12800000607967377, 0.9760000705718994, 0.0, 0.0, 0.0, 0.0, 0.0, 1.6939205106626968E9, 2023-09-05 10:28:30.662
74.0, 97.49171447753906, 1744.203369140625, 1.8512505292892456, 4.603816986083984, 0.19200000166893005, 0.12800000607967377, 0.9760000705718994, 0.0, 0.0, 0.0, 0.0, 0.0, 1.6939205106764257E9, 2023-09-05 10:28:30.676
74.0, 82.89862060546875, 1749.83935546875, 7.457360744476318, 3.481846809387207, 0.19200000166893005, 0.12800000607967377, 0.9760000705718994, 0.0, 0.0, 0.0, 0.0, 0.0, 1.6939205106764257E9, 2023-09-05 10:28:30.676
75.0, 47.511688232421875, 1710.7723388671875, 6.096036911010742, -4.1999077796936035, 0.19200000166893005, 0.12800000607967377, 0.9760000705718994, 0.0, 0.0, 0.0, 0.0, 0.0, 1.6939205106921844E9, 2023-09-05 10:28:30.692
75.0, 89.20409393310547, 1742.740966796875, 3.3285109996795654, 0.9723739624023438, 0.19200000166893005, 0.12800000607967377, 0.9760000705718994, 0.0, 0.0, 0.0, 0.0, 0.0, 1.6939205106921844E9, 2023-09-05 10:28:30.692
76.0, 111.59861755371094, 1749.5963134765625, 5.684648036956787, 0.7330203652381897, 0.19200000166893005, 0.12800000607967377, 0.9760000705718994, 0.0, 0.0, 0.0, 0.0, 0.0, 1.6939205106929328E9, 2023-09-05 10:28:30.692
76.0, 83.05944061279297, 1756.5338134765625, 6.993612766265869, -0.09723740071058273, 0.19200000166893005, 0.12800000607967377, 0.9760000705718994, 0.0, 0.0, 0.0, 0.0, 0.0, 1.6939205106929328E9, 2023-09-05 10:28:30.692
77.0, 88.9684829711914, 1755.3370361328125, 9.854636192321777, -0.9200153946876526, 0.19200000166893005, 0.12800000607967377, 0.9760000705718994, 0.0, 0.0, 0.0, 0.0, 0.0, 1.693920510706408E9, 2023-09-05 10:28:30.706
77.0, 127.4557876586914, 1758.02978515625, 7.012312412261963, 3.500546455383301, 0.19200000166893005, 0.12800000607967377, 0.9760000705718994, 0.0, 0.0, 0.0, 0.0, 0.0, 1.693920510706408E9, 2023-09-05 10:28:30.706
78.0, 85.69232940673828, 1754.6002197265625, 9.218852996826172, 3.6277029514312744, 0.19200000166893005, 0.12800000607967377, 0.9760000705718994, 0.0, 0.0, 0.0, 0.0, 0.0, 1.693920510722078E9, 2023-09-05 10:28:30.722
78.0, 72.0454330444336, 1751.92626953125, 9.903255462646484, -0.531065821647644, 0.19200000166893005, 0.12800000607967377, 0.9760000705718994, 0.0, 0.0, 0.0, 0.0, 0.0, 1.693920510722078E9, 2023-09-05 10:28:30.722
79.0, 102.7836685180664, 1776.658203125, 5.886602401733398, 0.5946440696716309, 0.19200000166893005, 0.12800000607967377, 0.9760000705718994, 0.0, 0.0, 0.0, 0.0, 0.0, 1.6939205107227664E9, 2023-09-05 10:28:30.722
79.0, 159.80218505859375, 1822.023193359375, 8.246479034423828, 1.0920507907867432, 0.19200000166893005, 0.12800000607967377, 0.9760000705718994, 0.0, 0.0, 0.0, 0.0, 0.0, 1.6939205107227664E9, 2023-09-05 10:28:30.722
80.0, 126.31512451171875, 1810.07421875, 11.249619483947754, -0.2692728042602539, 0.19200000166893005, 0.12800000607967377, 0.9760000705718994, 0.0, 0.0, 0.0, 0.0, 0.0, 1.693920510752771E9, 2023-09-05 10:28:30.752
80.0, 84.94060516357422, 1810.287353515625, 10.965386390686035, -1.5819777250289917, 0.19200000166893005, 0.12800000607967377, 0.9760000705718994, 0.0, 0.0, 0.0, 0.0, 0.0, 1.693920510752771E9, 2023-09-05 10:28:30.752
81.0, 110.33452606201172, 1836.567626953125, 7.453620433807373, 1.8063716888427734, 0.19200000166893005, 0.12800000607967377, 0.9760000705718994, 0.0, 0.0, 0.0, 0.0, 0.0, 1.6939205107534647E9, 2023-09-05 10:28:30.753
81.0, 152.35604858398438, 1855.5999755859375, 8.033305168151855, -0.6208233833312988, 0.19200000166893005, 0.12800000607967377, 0.9760000705718994, 0.0, 0.0, 0.0, 0.0, 0.0, 1.6939205107534647E9, 2023-09-05 10:28:30.753
82.0, 145.5830841064453, 1864.5682373046875, 7.505979061126709, 1.4996998310089111, 0.19200000166893005, 0.12800000607967377, 0.9760000705718994, 0.0, 0.0, 0.0, 0.0, 0.0, 1.6939205107543645E9, 2023-09-05 10:28:30.754
82.0, 152.4906768798828, 1883.671630859375, 15.943193435668945, 1.2042478322982788, 0.19200000166893005, 0.12800000607967377, 0.9760000705718994, 0.0, 0.0, 0.0, 0.0, 0.0, 1.6939205107543645E9, 2023-09-05 10:28:30.754
83.0, 143.09979248046875, 1885.2349853515625, 12.771758079528809, 0.38894960284233093, 0.19200000166893005, 0.12800000607967377, 0.9760000705718994, 0.0, 0.0, 0.0, 0.0, 0.0, 1.6939205107663393E9, 2023-09-05 10:28:30.766
83.0, 148.85549926757812, 1872.7100830078125, 11.201000213623047, 2.449634552001953, 0.19200000166893005, 0.12800000607967377, 0.9760000705718994, 0.0, 0.0, 0.0, 0.0, 0.0, 1.6939205107663393E9, 2023-09-05 10:28:30.766
84.0, 180.29684448242188, 1942.369384765625, 6.036198616027832, -0.1907348930835724, 0.19200000166893005, 0.12800000607967377, 0.9760000705718994, 0.0, 0.0, 0.0, 0.0, 0.0, 1.693920510782134E9, 2023-09-05 10:28:30.782
84.0, 127.08554077148438, 1891.3609619140625, 9.993012428283691, 3.882016181945801, 0.19200000166893005, 0.12800000607967377, 0.9760000705718994, 0.0, 0.0, 0.0, 0.0, 0.0, 1.693920510782134E9, 2023-09-05 10:28:30.782
85.0, 134.66632080078125, 1893.84423828125, 12.558584213256836, 1.8101115226745605, 0.19200000166893005, 0.12800000607967377, 0.9760000705718994, 0.0, 0.0, 0.0, 0.0, 0.0, 1.6939205107827454E9, 2023-09-05 10:28:30.782
85.0, 138.80638122558594, 1859.0594482421875, 8.912181854248047, -1.6380761861801147, 0.19200000166893005, 0.12800000607967377, 0.9760000705718994, 0.0, 0.0, 0.0, 0.0, 0.0, 1.6939205107827454E9, 2023-09-05 10:28:30.782
86.0, 128.6712646484375, 1843.7930908203125, 3.261192798614502, -0.3926894962787628, 0.19200000166893005, 0.12800000607967377, 0.9760000705718994, 0.0, 0.0, 0.0, 0.0, 0.0, 1.6939205108132412E9, 2023-09-05 10:28:30.813
86.0, 112.59716796875, 1807.564697265625, 7.977206707000732, 0.18325509130954742, 0.19200000166893005, 0.12800000607967377, 0.9760000705718994, 0.0, 0.0, 0.0, 0.0, 0.0, 1.6939205108132412E9, 2023-09-05 10:28:30.813
87.0, 169.7877197265625, 1867.5264892578125, 8.620469093322754, 3.0592381954193115, 0.19200000166893005, 0.12800000607967377, 0.9760000705718994, 0.0, 0.0, 0.0, 0.0, 0.0, 1.693920510813932E9, 2023-09-05 10:28:30.813
87.0, 112.82904052734375, 1806.027587890625, 6.731820106506348, -1.742793321609497, 0.19200000166893005, 0.12800000607967377, 0.9760000705718994, 0.0, 0.0, 0.0, 0.0, 0.0, 1.693920510813932E9, 2023-09-05 10:28:30.813
88.0, 101.3363265991211, 1759.357421875, 12.32671070098877, 0.6320430636405945, 0.19200000166893005, 0.12800000607967377, 0.9760000705718994, 0.0, 0.0, 0.0, 0.0, 0.0, 1.6939205108271189E9, 2023-09-05 10:28:30.827
88.0, 93.39278411865234, 1749.8804931640625, 5.194721221923828, -2.1130435466766357, 0.19200000166893005, 0.12800000607967377, 0.9760000705718994, 0.0, 0.0, 0.0, 0.0, 0.0, 1.6939205108271189E9, 2023-09-05 10:28:30.827
89.0, 84.1103515625, 1723.170166015625, 11.548810958862305, -1.4660407304763794, 0.19200000166893005, 0.12800000607967377, 0.9760000705718994, 0.0, 0.0, 0.0, 0.0, 0.0, 1.6939205108276525E9, 2023-09-05 10:28:30.827
89.0, 83.4895248413086, 1686.421875, 13.512258529663086, -1.1930280923843384, 0.19200000166893005, 0.12800000607967377, 0.9760000705718994, 0.0, 0.0, 0.0, 0.0, 0.0, 1.6939205108276525E9, 2023-09-05 10:28:30.827
90.0, 101.12689208984375, 1714.860107421875, 17.528911590576172, 0.13463640213012695, 0.19200000166893005, 0.12800000607967377, 0.9760000705718994, 0.0, 0.0, 0.0, 0.0, 0.0, 1.6939205108421423E9, 2023-09-05 10:28:30.842
90.0, 87.09478759765625, 1699.6312255859375, 8.998199462890625, 1.9372681379318237, 0.19200000166893005, 0.12800000607967377, 0.9760000705718994, 0.0, 0.0, 0.0, 0.0, 0.0, 1.6939205108421423E9, 2023-09-05 10:28:30.842
91.0, 75.29914855957031, 1675.856689453125, 8.358675956726074, 0.6694421172142029, 0.19200000166893005, 0.12800000607967377, 0.9760000705718994, 0.0, 0.0, 0.0, 0.0, 0.0, 1.6939205108426368E9, 2023-09-05 10:28:30.842
91.0, 52.21648406982422, 1649.4530029296875, 6.600923538208008, -0.3515506088733673, 0.19200000166893005, 0.12800000607967377, 0.9760000705718994, 0.0, 0.0, 0.0, 0.0, 0.0, 1.6939205108426368E9, 2023-09-05 10:28:30.842
92.0, 58.50325393676758, 1638.2557373046875, 13.093389511108398, -3.3023316860198975, 0.19200000166893005, 0.12800000607967377, 0.9760000705718994, 0.0, 0.0, 0.0, 0.0, 0.0, 1.6939205108565676E9, 2023-09-05 10:28:30.856
92.0, 97.63382720947266, 1676.0062255859375, 10.78961181640625, 1.8849096298217773, 0.19200000166893005, 0.12800000607967377, 0.9760000705718994, 0.0, 0.0, 0.0, 0.0, 0.0, 1.6939205108565676E9, 2023-09-05 10:28:30.856
93.0, 64.23651885986328, 1659.0943603515625, 10.681154251098633, -0.28423240780830383, 0.19200000166893005, 0.12800000607967377, 0.9760000705718994, 0.0, 0.0, 0.0, 0.0, 0.0, 1.6939205108720188E9, 2023-09-05 10:28:30.872
93.0, 91.53031158447266, 1655.7845458984375, 4.831950664520264, 1.181808352470398, 0.19200000166893005, 0.12800000607967377, 0.9760000705718994, 0.0, 0.0, 0.0, 0.0, 0.0, 1.6939205108720188E9, 2023-09-05 10:28:30.872
94.0, 78.74359130859375, 1643.7757568359375, 10.221146583557129, 0.6245632767677307, 0.19200000166893005, 0.12800000607967377, 0.9760000705718994, 0.0, 0.0, 0.0, 0.0, 0.0, 1.6939205108727052E9, 2023-09-05 10:28:30.872
94.0, 77.94325256347656, 1654.0230712890625, 10.097729682922363, 0.7442401051521301, 0.19200000166893005, 0.12800000607967377, 0.9760000705718994, 0.0, 0.0, 0.0, 0.0, 0.0, 1.6939205108727052E9, 2023-09-05 10:28:30.872
95.0, 60.14881134033203, 1633.54345703125, 11.186040878295898, -1.791412115097046, 0.19200000166893005, 0.12800000607967377, 0.9760000705718994, 0.0, 0.0, 0.0, 0.0, 0.0, 1.6939205108863378E9, 2023-09-05 10:28:30.886
95.0, 102.73505401611328, 1640.903564453125, 20.255298614501953, 2.359876871109009, 0.19200000166893005, 0.12800000607967377, 0.9760000705718994, 0.0, 0.0, 0.0, 0.0, 0.0, 1.6939205108863378E9, 2023-09-05 10:28:30.886
96.0, 77.48324584960938, 1637.95654296875, 6.406448841094971, 1.7801923751831055, 0.19200000166893005, 0.12800000607967377, 0.9760000705718994, 0.0, 0.0, 0.0, 0.0, 0.0, 1.6939205109021206E9, 2023-09-05 10:28:30.902
96.0, 69.57709503173828, 1624.1973876953125, 14.185440063476562, 3.721200466156006, 0.19200000166893005, 0.12800000607967377, 0.9760000705718994, 0.0, 0.0, 0.0, 0.0, 0.0, 1.6939205109021206E9, 2023-09-05 10:28:30.902
97.0, 86.41413116455078, 1645.02490234375, 8.42225456237793, 1.9784070253372192, 0.19200000166893005, 0.12800000607967377, 0.9760000705718994, 0.0, 0.0, 0.0, 0.0, 0.0, 1.6939205109027834E9, 2023-09-05 10:28:30.902
97.0, 94.21556091308594, 1640.4547119140625, 12.715660095214844, 3.481846809387207, 0.19200000166893005, 0.12800000607967377, 0.9760000705718994, 0.0, 0.0, 0.0, 0.0, 0.0, 1.6939205109027834E9, 2023-09-05 10:28:30.902
98.0, 95.61054229736328, 1641.034423828125, 7.77899169921875, -0.07105810195207596, 0.19200000166893005, 0.12800000607967377, 0.9760000705718994, 0.0, 0.0, 0.0, 0.0, 0.0, 1.6939205109164164E9, 2023-09-05 10:28:30.916
98.0, 62.273075103759766, 1645.2305908203125, 11.60116958618164, 4.532758712768555, 0.19200000166893005, 0.12800000607967377, 0.9760000705718994, 0.0, 0.0, 0.0, 0.0, 0.0, 1.6939205109164164E9, 2023-09-05 10:28:30.916
99.0, 56.005001068115234, 1624.227294921875, 15.228872299194336, 1.1144901514053345, 0.19200000166893005, 0.12800000607967377, 0.9760000705718994, 0.0, 0.0, 0.0, 0.0, 0.0, 1.6939205109320989E9, 2023-09-05 10:28:30.932
99.0, 78.81838989257812, 1633.1881103515625, 13.5421781539917, -2.5206925868988037, 0.19200000166893005, 0.12800000607967377, 0.9760000705718994, 0.0, 0.0, 0.0, 0.0, 0.0, 1.6939205109320989E9, 2023-09-05 10:28:30.932
100.0, 97.06910705566406, 1646.7041015625, 15.277491569519043, -0.830257773399353, 0.19200000166893005, 0.12800000607967377, 0.9760000705718994, 0.0, 0.0, 0.0, 0.0, 0.0, 1.6939205109327836E9, 2023-09-05 10:28:30.932
100.0, 85.40435791015625, 1655.691162109375, 17.379314422607422, 5.460253715515137, 0.19200000166893005, 0.12800000607967377, 0.9760000705718994, 0.0, 0.0, 0.0, 0.0, 0.0, 1.6939205109327836E9, 2023-09-05 10:28:30.932
0.0, -216.91793823242188, 79.28214263916016, 38.31340408325195, 13.985356330871582, 0.19200000166893005, 0.12800000607967377, 0.9760000705718994, 0.0, 0.0, 0.0, 0.0, 0.0, 1.6939205109471264E9, 2023-09-05 10:28:30.947
1.0, -226.06573486328125, 70.16426086425781, 33.39917755126953, 12.21264362335205, 0.19200000166893005, 0.12800000607967377, 0.9760000705718994, 0.0, 0.0, 0.0, 0.0, 0.0, 1.6939205109477465E9, 2023-09-05 10:28:30.947
1.0, -238.2540740966797, 58.162925720214844, 33.833003997802734, 14.602438926696777, 0.19200000166893005, 0.12800000607967377, 0.9760000705718994, 0.0, 0.0, 0.0, 0.0, 0.0, 1.6939205109477465E9, 2023-09-05 10:28:30.947
2.0, -250.92111206054688, 68.02130126953125, 34.895137786865234, 13.349573135375977, 0.19200000166893005, 0.12800000607967377, 0.9760000705718994, 0.0, 0.0, 0.0, 0.0, 0.0, 1.693920510961655E9, 2023-09-05 10:28:30.961
2.0, -233.65399169921875, 75.65443420410156, 32.84941101074219, 10.611966133117676, 0.19200000166893005, 0.12800000607967377, 0.9760000705718994, 0.0, 0.0, 0.0, 0.0, 0.0, 1.693920510961655E9, 2023-09-05 10:28:30.961
3.0, -237.64820861816406, 64.70027160644531, 33.9040641784668, 13.645025253295898, 0.19200000166893005, 0.12800000607967377, 0.9760000705718994, 0.0, 0.0, 0.0, 0.0, 0.0, 1.6939205109772446E9, 2023-09-05 10:28:30.977
3.0, -216.35694885253906, 64.08692932128906, 33.71706771850586, 11.460923194885254, 0.19200000166893005, 0.12800000607967377, 0.9760000705718994, 0.0, 0.0, 0.0, 0.0, 0.0, 1.6939205109772446E9, 2023-09-05 10:28:30.977
4.0, -216.14004516601562, 85.718505859375, 32.927947998046875, 11.748895645141602, 0.19200000166893005, 0.12800000607967377, 0.9760000705718994, 0.0, 0.0, 0.0, 0.0, 0.0, 1.6939205109776785E9, 2023-09-05 10:28:30.977
4.0, -258.23260498046875, 49.97254180908203, 36.54069137573242, 13.005501747131348, 0.19200000166893005, 0.12800000607967377, 0.9760000705718994, 0.0, 0.0, 0.0, 0.0, 0.0, 1.6939205109776785E9, 2023-09-05 10:28:30.977
5.0, -212.75169372558594, 87.72309112548828, 30.081884384155273, 15.97872257232666, 0.19200000166893005, 0.12800000607967377, 0.9760000705718994, 0.0, 0.0, 0.0, 0.0, 0.0, 1.6939205109919248E9, 2023-09-05 10:28:30.991
5.0, -235.56134033203125, 65.0593032836914, 35.16440963745117, 10.956036567687988, 0.19200000166893005, 0.12800000607967377, 0.9760000705718994, 0.0, 0.0, 0.0, 0.0, 0.0, 1.6939205109919248E9, 2023-09-05 10:28:30.991
6.0, -264.8484802246094, 48.36438751220703, 30.97572135925293, 12.9905424118042, 0.19200000166893005, 0.12800000607967377, 0.9760000705718994, 0.0, 0.0, 0.0, 0.0, 0.0, 1.6939205110070992E9, 2023-09-05 10:28:31.007
6.0, -233.07431030273438, 65.2201156616211, 35.06343078613281, 11.288887977600098, 0.19200000166893005, 0.12800000607967377, 0.9760000705718994, 0.0, 0.0, 0.0, 0.0, 0.0, 1.6939205110070992E9, 2023-09-05 10:28:31.007
7.0, -204.5388641357422, 102.76870727539062, 35.05595397949219, 12.590373039245605, 0.19200000166893005, 0.12800000607967377, 0.9760000705718994, 0.0, 0.0, 0.0, 0.0, 0.0, 1.6939205110076635E9, 2023-09-05 10:28:31.007
7.0, -216.51402282714844, 81.22689056396484, 29.04593276977539, 17.57192039489746, 0.19200000166893005, 0.12800000607967377, 0.9760000705718994, 0.0, 0.0, 0.0, 0.0, 0.0, 1.6939205110076635E9, 2023-09-05 10:28:31.007
8.0, -246.9829864501953, 63.29032516479492, 29.453582763671875, 9.695691108703613, 0.19200000166893005, 0.12800000607967377, 0.9760000705718994, 0.0, 0.0, 0.0, 0.0, 0.0, 1.6939205110214357E9, 2023-09-05 10:28:31.021
8.0, -250.4162139892578, 52.01078796386719, 33.500152587890625, 11.5731201171875, 0.19200000166893005, 0.12800000607967377, 0.9760000705718994, 0.0, 0.0, 0.0, 0.0, 0.0, 1.6939205110214357E9, 2023-09-05 10:28:31.021
9.0, -204.38926696777344, 85.70354461669922, 34.93253707885742, 11.45344352722168, 0.19200000166893005, 0.12800000607967377, 0.9760000705718994, 0.0, 0.0, 0.0, 0.0, 0.0, 1.6939205110371654E9, 2023-09-05 10:28:31.037
9.0, -224.07237243652344, 86.74324035644531, 34.14715576171875, 15.485055923461914, 0.19200000166893005, 0.12800000607967377, 0.9760000705718994, 0.0, 0.0, 0.0, 0.0, 0.0, 1.6939205110371654E9, 2023-09-05 10:28:31.037
10.0, -256.0298156738281, 66.58892059326172, 32.71851348876953, 13.143877983093262, 0.19200000166893005, 0.12800000607967377, 0.9600000381469727, 0.0, 0.0, 0.0, 0.0, 0.0, 1.693920511037696E9, 2023-09-05 10:28:31.037
10.0, -217.4265594482422, 73.07764434814453, 41.60077667236328, 16.502307891845703, 0.19200000166893005, 0.12800000607967377, 0.9600000381469727, 0.0, 0.0, 0.0, 0.0, 0.0, 1.693920511037696E9, 2023-09-05 10:28:31.037
11.0, -223.52259826660156, 64.18790435791016, 40.74433898925781, 18.813566207885742, 0.19200000166893005, 0.12800000607967377, 0.9600000381469727, 0.0, 0.0, 0.0, 0.0, 0.0, 1.693920511051304E9, 2023-09-05 10:28:31.051
11.0, -220.58677673339844, 70.16426086425781, 34.072357177734375, 12.373458862304688, 0.19200000166893005, 0.12800000607967377, 0.9600000381469727, 0.0, 0.0, 0.0, 0.0, 0.0, 1.693920511051304E9, 2023-09-05 10:28:31.051
12.0, -262.8850402832031, 68.60846710205078, 34.19577407836914, 10.136999130249023, 0.19200000166893005, 0.12800000607967377, 0.9600000381469727, 0.0, 0.0, 0.0, 0.0, 0.0, 1.6939205110672605E9, 2023-09-05 10:28:31.067
12.0, -260.5289001464844, 63.361385345458984, 37.14655685424805, 12.006948471069336, 0.19200000166893005, 0.12800000607967377, 0.9600000381469727, 0.0, 0.0, 0.0, 0.0, 0.0, 1.6939205110672605E9, 2023-09-05 10:28:31.067
13.0, -222.07151794433594, 72.3670654296875, 36.989479064941406, 12.063047409057617, 0.19200000166893005, 0.12800000607967377, 0.9600000381469727, 0.0, 0.0, 0.0, 0.0, 0.0, 1.6939205110677176E9, 2023-09-05 10:28:31.067
13.0, -229.71212768554688, 71.87339782714844, 35.13822937011719, 9.145925521850586, 0.19200000166893005, 0.12800000607967377, 0.9600000381469727, 0.0, 0.0, 0.0, 0.0, 0.0, 1.6939205110677176E9, 2023-09-05 10:28:31.067
14.0, -211.367919921875, 90.82347106933594, 31.11783790588379, 10.54838752746582, 0.19200000166893005, 0.12800000607967377, 0.9600000381469727, 0.0, 0.0, 0.0, 0.0, 0.0, 1.6939205110814123E9, 2023-09-05 10:28:31.081
14.0, -239.2227020263672, 69.79401397705078, 35.190589904785156, 11.718976974487305, 0.19200000166893005, 0.12800000607967377, 0.9600000381469727, 0.0, 0.0, 0.0, 0.0, 0.0, 1.6939205110814123E9, 2023-09-05 10:28:31.081
15.0, -275.641845703125, 26.3737735748291, 34.24065399169922, 9.044947624206543, 0.19200000166893005, 0.12800000607967377, 0.9600000381469727, 0.0, 0.0, 0.0, 0.0, 0.0, 1.6939205110972703E9, 2023-09-05 10:28:31.097
15.0, -196.86085510253906, 112.18203735351562, 36.2153205871582, 11.603039741516113, 0.19200000166893005, 0.12800000607967377, 0.9600000381469727, 0.0, 0.0, 0.0, 0.0, 0.0, 1.6939205110972703E9, 2023-09-05 10:28:31.097
16.0, -237.50234985351562, 85.23979949951172, 33.85170364379883, 12.481916427612305, 0.19200000166893005, 0.12800000607967377, 0.9600000381469727, 0.0, 0.0, 0.0, 0.0, 0.0, 1.6939205110978951E9, 2023-09-05 10:28:31.097
16.0, -176.9122314453125, 137.7704315185547, 25.48554801940918, 12.481916427612305, 0.19200000166893005, 0.12800000607967377, 0.9600000381469727, 0.0, 0.0, 0.0, 0.0, 0.0, 1.6939205110978951E9, 2023-09-05 10:28:31.097
17.0, -224.607177734375, 75.29540252685547, 31.03182029724121, 13.981616020202637, 0.19200000166893005, 0.12800000607967377, 0.9600000381469727, 0.0, 0.0, 0.0, 0.0, 0.0, 1.6939205111115143E9, 2023-09-05 10:28:31.111
17.0, -191.25100708007812, 106.83772277832031, 37.14655685424805, 11.494582176208496, 0.19200000166893005, 0.12800000607967377, 0.9600000381469727, 0.0, 0.0, 0.0, 0.0, 0.0, 1.6939205111115143E9, 2023-09-05 10:28:31.111
18.0, -222.93170166015625, 106.68064880371094, 34.943756103515625, 11.760115623474121, 0.19200000166893005, 0.12800000607967377, 0.9600000381469727, 0.0, 0.0, 0.0, 0.0, 0.0, 1.693920511127106E9, 2023-09-05 10:28:31.127
18.0, -208.85096740722656, 99.84037017822266, 37.93193435668945, 13.192497253417969, 0.19200000166893005, 0.12800000607967377, 0.9600000381469727, 0.0, 0.0, 0.0, 0.0, 0.0, 1.693920511127106E9, 2023-09-05 10:28:31.127
19.0, -203.98536682128906, 102.89212799072266, 39.01650619506836, 9.961223602294922, 0.19200000166893005, 0.12800000607967377, 0.9600000381469727, 0.0, 0.0, 0.0, 0.0, 0.0, 1.6939205111277964E9, 2023-09-05 10:28:31.127
19.0, -201.00840759277344, 105.10614776611328, 40.43766784667969, 11.247749328613281, 0.19200000166893005, 0.12800000607967377, 0.9600000381469727, 0.0, 0.0, 0.0, 0.0, 0.0, 1.6939205111277964E9, 2023-09-05 10:28:31.127
20.0, -222.88307189941406, 93.7293701171875, 34.66326141357422, 10.088379859924316, 0.19200000166893005, 0.12800000607967377, 0.9760000705718994, 0.0, 0.0, 0.0, 0.0, 0.0, 1.6939205111416245E9, 2023-09-05 10:28:31.141
20.0, -223.86293029785156, 99.33174133300781, 31.966794967651367, 9.138445854187012, 0.19200000166893005, 0.12800000607967377, 0.9760000705718994, 0.0, 0.0, 0.0, 0.0, 0.0, 1.6939205111416245E9, 2023-09-05 10:28:31.141
21.0, -236.50753784179688, 54.68855667114258, 35.62815856933594, 9.837806701660156, 0.19200000166893005, 0.12800000607967377, 0.9760000705718994, 0.0, 0.0, 0.0, 0.0, 0.0, 1.693920511157087E9, 2023-09-05 10:28:31.157
21.0, -236.9413604736328, 46.6215934753418, 35.441162109375, 11.236529350280762, 0.19200000166893005, 0.12800000607967377, 0.9760000705718994, 0.0, 0.0, 0.0, 0.0, 0.0, 1.693920511157087E9, 2023-09-05 10:28:31.157
22.0, -243.44505310058594, 65.55670928955078, 40.15343475341797, 9.418937683105469, 0.19200000166893005, 0.12800000607967377, 0.9760000705718994, 0.0, 0.0, 0.0, 0.0, 0.0, 1.6939205111578133E9, 2023-09-05 10:28:31.157
22.0, -255.61842346191406, 49.45269775390625, 38.227386474609375, 7.216136932373047, 0.19200000166893005, 0.12800000607967377, 0.9760000705718994, 0.0, 0.0, 0.0, 0.0, 0.0, 1.6939205111578133E9, 2023-09-05 10:28:31.157
23.0, -229.24090576171875, 49.16472625732422, 32.90924835205078, 9.059907913208008, 0.19200000166893005, 0.12800000607967377, 0.9760000705718994, 0.0, 0.0, 0.0, 0.0, 0.0, 1.693920511171344E9, 2023-09-05 10:28:31.171
23.0, -222.3445281982422, 72.4680404663086, 40.576045989990234, 13.218676567077637, 0.19200000166893005, 0.12800000607967377, 0.9760000705718994, 0.0, 0.0, 0.0, 0.0, 0.0, 1.693920511171344E9, 2023-09-05 10:28:31.171
24.0, -263.3936767578125, 50.290435791015625, 38.391944885253906, 5.787495136260986, 0.19200000166893005, 0.12800000607967377, 0.9760000705718994, 0.0, 0.0, 0.0, 0.0, 0.0, 1.6939205111870718E9, 2023-09-05 10:28:31.187
24.0, -235.05645751953125, 65.76988220214844, 39.229679107666016, 10.772781372070312, 0.19200000166893005, 0.12800000607967377, 0.9760000705718994, 0.0, 0.0, 0.0, 0.0, 0.0, 1.6939205111870718E9, 2023-09-05 10:28:31.187
25.0, -245.89842224121094, 52.10802459716797, 33.86292266845703, 9.613412857055664, 0.19200000166893005, 0.12800000607967377, 0.9760000705718994, 0.0, 0.0, 0.0, 0.0, 0.0, 1.6939205111878335E9, 2023-09-05 10:28:31.187
25.0, -232.93218994140625, 60.915489196777344, 36.5743522644043, 16.431249618530273, 0.19200000166893005, 0.12800000607967377, 0.9760000705718994, 0.0, 0.0, 0.0, 0.0, 0.0, 1.6939205111878335E9, 2023-09-05 10:28:31.187
26.0, -215.9605255126953, 99.8328857421875, 37.05305862426758, 14.06389331817627, 0.19200000166893005, 0.12800000607967377, 0.9760000705718994, 0.0, 0.0, 0.0, 0.0, 0.0, 1.6939205112176876E9, 2023-09-05 10:28:31.217
26.0, -181.28790283203125, 291.8468322753906, 31.521747589111328, 12.059307098388672, 0.19200000166893005, 0.12800000607967377, 0.9760000705718994, 0.0, 0.0, 0.0, 0.0, 0.0, 1.6939205112176876E9, 2023-09-05 10:28:31.217
27.0, -194.68797302246094, 306.4511413574219, 33.077545166015625, 9.79666805267334, 0.19200000166893005, 0.12800000607967377, 0.9760000705718994, 0.0, 0.0, 0.0, 0.0, 0.0, 1.6939205112186325E9, 2023-09-05 10:28:31.218
27.0, -151.61927795410156, 363.4509582519531, 37.670143127441406, 7.358253002166748, 0.19200000166893005, 0.12800000607967377, 0.9760000705718994, 0.0, 0.0, 0.0, 0.0, 0.0, 1.6939205112186325E9, 2023-09-05 10:28:31.218
28.0, -103.00806427001953, 344.0895080566406, 38.5228385925293, 6.875805854797363, 0.19200000166893005, 0.12800000607967377, 0.9760000705718994, 0.0, 0.0, 0.0, 0.0, 0.0, 1.6939205112191694E9, 2023-09-05 10:28:31.219
28.0, -14.716506004333496, 197.94915771484375, 36.43971633911133, 11.479622840881348, 0.19200000166893005, 0.12800000607967377, 0.9760000705718994, 0.0, 0.0, 0.0, 0.0, 0.0, 1.6939205112191694E9, 2023-09-05 10:28:31.219
29.0, -71.21891784667969, 423.0182189941406, 38.470481872558594, 11.045794486999512, 0.19200000166893005, 0.12800000607967377, 0.9760000705718994, 0.0, 0.0, 0.0, 0.0, 0.0, 1.6939205112313492E9, 2023-09-05 10:28:31.231
29.0, -213.6978759765625, 545.2063598632812, 37.12785720825195, 13.701123237609863, 0.19200000166893005, 0.12800000607967377, 0.9760000705718994, 0.0, 0.0, 0.0, 0.0, 0.0, 1.6939205112313492E9, 2023-09-05 10:28:31.231
30.0, -372.14996337890625, 745.3040771484375, 39.132442474365234, 11.445963859558105, 0.19200000166893005, 0.12800000607967377, 0.9760000705718994, 0.0, 0.0, 0.0, 0.0, 0.0, 1.693920511247013E9, 2023-09-05 10:28:31.247
30.0, -351.4234313964844, 754.7734985351562, 37.86461639404297, 19.3259334564209, 0.19200000166893005, 0.12800000607967377, 0.9760000705718994, 0.0, 0.0, 0.0, 0.0, 0.0, 1.693920511247013E9, 2023-09-05 10:28:31.247
31.0, -341.4902648925781, 881.6122436523438, 34.35285186767578, 14.329426765441895, 0.19200000166893005, 0.12800000607967377, 0.9760000705718994, 0.0, 0.0, 0.0, 0.0, 0.0, 1.6939205112477632E9, 2023-09-05 10:28:31.247
31.0, -333.5841064453125, 1004.400634765625, 35.42620086669922, 10.914897918701172, 0.19200000166893005, 0.12800000607967377, 0.9760000705718994, 0.0, 0.0, 0.0, 0.0, 0.0, 1.6939205112477632E9, 2023-09-05 10:28:31.247
32.0, -306.9859619140625, 1196.732421875, 39.98514175415039, 9.209503173828125, 0.19200000166893005, 0.12800000607967377, 0.9760000705718994, 0.0, 0.0, 0.0, 0.0, 0.0, 1.6939205112776906E9, 2023-09-05 10:28:31.277
32.0, -309.1775207519531, 1340.3670654296875, 34.58098602294922, 12.695090293884277, 0.19200000166893005, 0.12800000607967377, 0.9760000705718994, 0.0, 0.0, 0.0, 0.0, 0.0, 1.6939205112776906E9, 2023-09-05 10:28:31.277
33.0, -265.43939208984375, 1465.788330078125, 41.443702697753906, 10.38009262084961, 0.19200000166893005, 0.12800000607967377, 0.9760000705718994, 0.0, 0.0, 0.0, 0.0, 0.0, 1.693920511278404E9, 2023-09-05 10:28:31.278
33.0, -251.35867309570312, 1520.25244140625, 42.101924896240234, 10.492289543151855, 0.19200000166893005, 0.12800000607967377, 0.9760000705718994, 0.0, 0.0, 0.0, 0.0, 0.0, 1.693920511278404E9, 2023-09-05 10:28:31.278
34.0, -245.18783569335938, 1586.96484375, 35.86003112792969, 7.0403618812561035, 0.19200000166893005, 0.12800000607967377, 0.9760000705718994, 0.0, 0.0, 0.0, 0.0, 0.0, 1.6939205112792075E9, 2023-09-05 10:28:31.279
34.0, -202.3323211669922, 1633.889404296875, 40.17213439941406, 10.043500900268555, 0.19200000166893005, 0.12800000607967377, 0.9760000705718994, 0.0, 0.0, 0.0, 0.0, 0.0, 1.6939205112792075E9, 2023-09-05 10:28:31.279
35.0, -243.5198516845703, 1597.7581787109375, 36.2340202331543, 13.667464256286621, 0.19200000166893005, 0.12800000607967377, 0.9760000705718994, 0.0, 0.0, 0.0, 0.0, 0.0, 1.6939205112914248E9, 2023-09-05 10:28:31.291
35.0, -273.76068115234375, 1576.3509521484375, 35.38506317138672, 9.179584503173828, 0.19200000166893005, 0.12800000607967377, 0.9760000705718994, 0.0, 0.0, 0.0, 0.0, 0.0, 1.6939205112914248E9, 2023-09-05 10:28:31.291
36.0, -188.28526306152344, 1673.7828369140625, 38.62755584716797, 12.885825157165527, 0.19200000166893005, 0.12800000607967377, 0.9760000705718994, 0.0, 0.0, 0.0, 0.0, 0.0, 1.6939205113070252E9, 2023-09-05 10:28:31.307
36.0, -222.92420959472656, 1647.9027099609375, 36.69776916503906, 8.214690208435059, 0.19200000166893005, 0.12800000607967377, 0.9760000705718994, 0.0, 0.0, 0.0, 0.0, 0.0, 1.6939205113070252E9, 2023-09-05 10:28:31.307
37.0, -230.95004272460938, 1639.783447265625, 36.52947235107422, 10.720423698425293, 0.19200000166893005, 0.12800000607967377, 0.9760000705718994, 0.0, 0.0, 0.0, 0.0, 0.0, 1.6939205113076787E9, 2023-09-05 10:28:31.307
37.0, -228.74349975585938, 1619.8721923828125, 38.4517822265625, 7.6387457847595215, 0.19200000166893005, 0.12800000607967377, 0.9760000705718994, 0.0, 0.0, 0.0, 0.0, 0.0, 1.6939205113076787E9, 2023-09-05 10:28:31.307
38.0, -245.9283447265625, 1616.741943359375, 37.3485107421875, 9.777968406677246, 0.19200000166893005, 0.12800000607967377, 0.9760000705718994, 0.0, 0.0, 0.0, 0.0, 0.0, 1.6939205113213782E9, 2023-09-05 10:28:31.321
38.0, -220.13050842285156, 1631.6453857421875, 41.17068862915039, 10.974736213684082, 0.19200000166893005, 0.12800000607967377, 0.9760000705718994, 0.0, 0.0, 0.0, 0.0, 0.0, 1.6939205113213782E9, 2023-09-05 10:28:31.321
39.0, -256.55712890625, 1580.4349365234375, 40.63588333129883, 16.10213851928711, 0.19200000166893005, 0.12800000607967377, 0.9760000705718994, 0.0, 0.0, 0.0, 0.0, 0.0, 1.6939205113370092E9, 2023-09-05 10:28:31.337
39.0, -169.9261016845703, 1666.074951171875, 39.704647064208984, 9.54609489440918, 0.19200000166893005, 0.12800000607967377, 0.9760000705718994, 0.0, 0.0, 0.0, 0.0, 0.0, 1.6939205113370092E9, 2023-09-05 10:28:31.337
40.0, -243.35528564453125, 1625.3736572265625, 35.64685821533203, 8.562500953674316, 0.19200000166893005, 0.12800000607967377, 0.9760000705718994, 0.0, 0.0, 0.0, 0.0, 0.0, 1.6939205113376932E9, 2023-09-05 10:28:31.337
40.0, -223.1486053466797, 1645.3409423828125, 37.42704772949219, 13.375752449035645, 0.19200000166893005, 0.12800000607967377, 0.9760000705718994, 0.0, 0.0, 0.0, 0.0, 0.0, 1.6939205113376932E9, 2023-09-05 10:28:31.337
41.0, -220.6204376220703, 1625.1903076171875, 41.26792526245117, 12.590373039245605, 0.19200000166893005, 0.12800000607967377, 0.9760000705718994, 0.0, 0.0, 0.0, 0.0, 0.0, 1.6939205113513205E9, 2023-09-05 10:28:31.351
41.0, -220.4970245361328, 1645.79345703125, 42.25151824951172, 18.83600616455078, 0.19200000166893005, 0.12800000607967377, 0.9760000705718994, 0.0, 0.0, 0.0, 0.0, 0.0, 1.6939205113513205E9, 2023-09-05 10:28:31.351
42.0, -230.38905334472656, 1665.2147216796875, 30.3174991607666, 8.065093994140625, 0.19200000166893005, 0.12800000607967377, 0.9760000705718994, 0.0, 0.0, 0.0, 0.0, 0.0, 1.6939205113674765E9, 2023-09-05 10:28:31.367
42.0, -221.6638641357422, 1657.435791015625, 40.145957946777344, 12.777368545532227, 0.19200000166893005, 0.12800000607967377, 0.9760000705718994, 0.0, 0.0, 0.0, 0.0, 0.0, 1.6939205113674765E9, 2023-09-05 10:28:31.367
43.0, -205.41773986816406, 1675.6490478515625, 41.40630340576172, 15.357898712158203, 0.19200000166893005, 0.12800000607967377, 0.9760000705718994, 0.0, 0.0, 0.0, 0.0, 0.0, 1.6939205113819807E9, 2023-09-05 10:28:31.381
43.0, -259.6836853027344, 1612.68408203125, 35.19432830810547, 14.688457489013672, 0.19200000166893005, 0.12800000607967377, 0.9760000705718994, 0.0, 0.0, 0.0, 0.0, 0.0, 1.6939205113819807E9, 2023-09-05 10:28:31.381
44.0, -168.11224365234375, 1723.871337890625, 33.08876419067383, 11.77507495880127, 0.19200000166893005, 0.12800000607967377, 0.9760000705718994, 0.0, 0.0, 0.0, 0.0, 0.0, 1.693920511382681E9, 2023-09-05 10:28:31.382
44.0, -179.7844696044922, 1737.428466796875, 38.39942169189453, 14.045194625854492, 0.19200000166893005, 0.12800000607967377, 0.9760000705718994, 0.0, 0.0, 0.0, 0.0, 0.0, 1.693920511382681E9, 2023-09-05 10:28:31.382
45.0, -197.6312713623047, 1716.8553466796875, 41.4736213684082, 15.817907333374023, 0.19200000166893005, 0.12800000607967377, 0.9760000705718994, 0.0, 0.0, 0.0, 0.0, 0.0, 1.6939205113969774E9, 2023-09-05 10:28:31.396
45.0, -198.62608337402344, 1725.913330078125, 36.57061004638672, 9.276822090148926, 0.19200000166893005, 0.12800000607967377, 0.9760000705718994, 0.0, 0.0, 0.0, 0.0, 0.0, 1.6939205113969774E9, 2023-09-05 10:28:31.396
46.0, -173.07882690429688, 1767.759033203125, 41.06970977783203, 14.83431339263916, 0.19200000166893005, 0.12800000607967377, 0.9760000705718994, 0.0, 0.0, 0.0, 0.0, 0.0, 1.6939205113976746E9, 2023-09-05 10:28:31.397
46.0, -192.0064697265625, 1785.5123291015625, 38.48543930053711, 14.684717178344727, 0.19200000166893005, 0.12800000607967377, 0.9760000705718994, 0.0, 0.0, 0.0, 0.0, 0.0, 1.6939205113976746E9, 2023-09-05 10:28:31.397
47.0, -168.138427734375, 1799.903564453125, 41.585819244384766, 9.647071838378906, 0.19200000166893005, 0.12800000607967377, 0.9760000705718994, 0.0, 0.0, 0.0, 0.0, 0.0, 1.6939205114113283E9, 2023-09-05 10:28:31.411
47.0, -180.65586853027344, 1801.8968505859375, 40.62092208862305, 8.102493286132812, 0.19200000166893005, 0.12800000607967377, 0.9760000705718994, 0.0, 0.0, 0.0, 0.0, 0.0, 1.6939205114113283E9, 2023-09-05 10:28:31.411
48.0, -192.95265197753906, 1822.638427734375, 38.93796920776367, 9.953743934631348, 0.19200000166893005, 0.12800000607967377, 0.9760000705718994, 0.0, 0.0, 0.0, 0.0, 0.0, 1.6939205114433792E9, 2023-09-05 10:28:31.443
48.0, -160.68853759765625, 1830.5670166015625, 37.29241180419922, 8.637298583984375, 0.19200000166893005, 0.12800000607967377, 0.9760000705718994, 0.0, 0.0, 0.0, 0.0, 0.0, 1.6939205114433792E9, 2023-09-05 10:28:31.443
49.0, -143.44386291503906, 1845.54150390625, 38.4218635559082, 6.782308578491211, 0.19200000166893005, 0.12800000607967377, 0.9760000705718994, 0.0, 0.0, 0.0, 0.0, 0.0, 1.6939205114440649E9, 2023-09-05 10:28:31.444
49.0, -158.32492065429688, 1818.2364501953125, 38.73227310180664, 9.763009071350098, 0.19200000166893005, 0.12800000607967377, 0.9760000705718994, 0.0, 0.0, 0.0, 0.0, 0.0, 1.6939205114440649E9, 2023-09-05 10:28:31.444
50.0, -168.6844482421875, 1791.8963623046875, 36.58930969238281, 14.273327827453613, 0.19200000166893005, 0.12800000607967377, 0.9600000381469727, 0.0, 0.0, 0.0, 0.0, 0.0, 1.6939205114448297E9, 2023-09-05 10:28:31.444
50.0, -199.0412139892578, 1774.6854248046875, 39.36431884765625, 11.498322486877441, 0.19200000166893005, 0.12800000607967377, 0.9600000381469727, 0.0, 0.0, 0.0, 0.0, 0.0, 1.6939205114448297E9, 2023-09-05 10:28:31.444
51.0, -172.60012817382812, 1771.865478515625, 41.286624908447266, 15.4551362991333, 0.19200000166893005, 0.12800000607967377, 0.9600000381469727, 0.0, 0.0, 0.0, 0.0, 0.0, 1.693920511445573E9, 2023-09-05 10:28:31.445
51.0, -240.5054931640625, 1684.96142578125, 35.63937759399414, 10.784001350402832, 0.19200000166893005, 0.12800000607967377, 0.9600000381469727, 0.0, 0.0, 0.0, 0.0, 0.0, 1.693920511445573E9, 2023-09-05 10:28:31.445
52.0, -185.44293212890625, 1719.51806640625, 34.14715576171875, 12.223862648010254, 0.19200000166893005, 0.12800000607967377, 0.9600000381469727, 0.0, 0.0, 0.0, 0.0, 0.0, 1.6939205114563737E9, 2023-09-05 10:28:31.456
52.0, -191.21360778808594, 1716.1859130859375, 36.24150085449219, 10.540907859802246, 0.19200000166893005, 0.12800000607967377, 0.9600000381469727, 0.0, 0.0, 0.0, 0.0, 0.0, 1.6939205114563737E9, 2023-09-05 10:28:31.456
53.0, -198.2296600341797, 1653.97265625, 38.67243576049805, 12.324840545654297, 0.19200000166893005, 0.12800000607967377, 0.9600000381469727, 0.0, 0.0, 0.0, 0.0, 0.0, 1.6939205114713633E9, 2023-09-05 10:28:31.471
53.0, -244.20050048828125, 1620.3883056640625, 36.15548324584961, 11.498322486877441, 0.19200000166893005, 0.12800000607967377, 0.9600000381469727, 0.0, 0.0, 0.0, 0.0, 0.0, 1.6939205114713633E9, 2023-09-05 10:28:31.471
54.0, -229.02774047851562, 1628.724609375, 38.76219177246094, 9.145925521850586, 0.19200000166893005, 0.12800000607967377, 0.9600000381469727, 0.0, 0.0, 0.0, 0.0, 0.0, 1.6939205114870963E9, 2023-09-05 10:28:31.487
54.0, -219.3862762451172, 1609.314453125, 30.676528930664062, 15.698229789733887, 0.19200000166893005, 0.12800000607967377, 0.9600000381469727, 0.0, 0.0, 0.0, 0.0, 0.0, 1.6939205114870963E9, 2023-09-05 10:28:31.487
55.0, -234.33465576171875, 1579.0587158203125, 34.92131423950195, 12.504355430603027, 0.19200000166893005, 0.12800000607967377, 0.9600000381469727, 0.0, 0.0, 0.0, 0.0, 0.0, 1.6939205114876847E9, 2023-09-05 10:28:31.487
55.0, -243.62081909179688, 1558.6351318359375, 37.18769454956055, 12.837206840515137, 0.19200000166893005, 0.12800000607967377, 0.9600000381469727, 0.0, 0.0, 0.0, 0.0, 0.0, 1.6939205114876847E9, 2023-09-05 10:28:31.487
56.0, -245.05320739746094, 1556.2752685546875, 37.49062728881836, 14.598699569702148, 0.19200000166893005, 0.12800000607967377, 0.9600000381469727, 0.0, 0.0, 0.0, 0.0, 0.0, 1.6939205115013156E9, 2023-09-05 10:28:31.501
56.0, -257.60430908203125, 1549.569580078125, 43.137874603271484, 13.03916072845459, 0.19200000166893005, 0.12800000607967377, 0.9600000381469727, 0.0, 0.0, 0.0, 0.0, 0.0, 1.6939205115013156E9, 2023-09-05 10:28:31.501
57.0, -225.50100708007812, 1541.19970703125, 39.15862274169922, 12.4033784866333, 0.19200000166893005, 0.12800000607967377, 0.9600000381469727, 0.0, 0.0, 0.0, 0.0, 0.0, 1.6939205115170114E9, 2023-09-05 10:28:31.517
57.0, -236.09988403320312, 1521.2996826171875, 36.18914031982422, 11.636698722839355, 0.19200000166893005, 0.12800000607967377, 0.9600000381469727, 0.0, 0.0, 0.0, 0.0, 0.0, 1.6939205115170114E9, 2023-09-05 10:28:31.517
58.0, -224.96620178222656, 1529.5611572265625, 32.24354934692383, 16.73792266845703, 0.19200000166893005, 0.12800000607967377, 0.9600000381469727, 0.0, 0.0, 0.0, 0.0, 0.0, 1.6939205115177476E9, 2023-09-05 10:28:31.517
58.0, -224.76051330566406, 1563.32861328125, 36.91842269897461, 9.609672546386719, 0.19200000166893005, 0.12800000607967377, 0.9600000381469727, 0.0, 0.0, 0.0, 0.0, 0.0, 1.6939205115177476E9, 2023-09-05 10:28:31.517
59.0, -243.5422821044922, 1518.898681640625, 34.40147018432617, 7.870619297027588, 0.19200000166893005, 0.12800000607967377, 0.9600000381469727, 0.0, 0.0, 0.0, 0.0, 0.0, 1.693920511531364E9, 2023-09-05 10:28:31.531
59.0, -231.56338500976562, 1540.017822265625, 42.475914001464844, 9.370319366455078, 0.19200000166893005, 0.12800000607967377, 0.9600000381469727, 0.0, 0.0, 0.0, 0.0, 0.0, 1.693920511531364E9, 2023-09-05 10:28:31.531
60.0, -241.91543579101562, 1536.2891845703125, 42.07948303222656, 8.308187484741211, 0.19200000166893005, 0.12800000607967377, 0.9760000705718994, 0.0, 0.0, 0.0, 0.0, 0.0, 1.6939205115469956E9, 2023-09-05 10:28:31.546
60.0, -226.121826171875, 1535.1710205078125, 37.15403747558594, 12.863386154174805, 0.19200000166893005, 0.12800000607967377, 0.9760000705718994, 0.0, 0.0, 0.0, 0.0, 0.0, 1.6939205115469956E9, 2023-09-05 10:28:31.546
61.0, -221.5180206298828, 1537.702880859375, 34.3079719543457, 11.977029800415039, 0.19200000166893005, 0.1120000034570694, 0.9760000705718994, 0.0, 0.0, 0.0, 0.0, 0.0, 1.6939205115477383E9, 2023-09-05 10:28:31.547
61.0, -246.70623779296875, 1506.3214111328125, 39.92156219482422, 14.579999923706055, 0.19200000166893005, 0.1120000034570694, 0.9760000705718994, 0.0, 0.0, 0.0, 0.0, 0.0, 1.6939205115477383E9, 2023-09-05 10:28:31.547
62.0, -254.60116577148438, 1527.208740234375, 35.90116882324219, 13.49168872833252, 0.19200000166893005, 0.1120000034570694, 0.9760000705718994, 0.0, 0.0, 0.0, 0.0, 0.0, 1.6939205115612948E9, 2023-09-05 10:28:31.561
62.0, -223.35804748535156, 1531.0982666015625, 38.97162628173828, 11.748895645141602, 0.19200000166893005, 0.1120000034570694, 0.9760000705718994, 0.0, 0.0, 0.0, 0.0, 0.0, 1.6939205115612948E9, 2023-09-05 10:28:31.561
63.0, -224.11724853515625, 1533.0953369140625, 35.085872650146484, 16.034820556640625, 0.19200000166893005, 0.1120000034570694, 0.9760000705718994, 0.0, 0.0, 0.0, 0.0, 0.0, 1.693920511577208E9, 2023-09-05 10:28:31.577
63.0, -227.95437622070312, 1521.22119140625, 34.846519470214844, 7.870619297027588, 0.19200000166893005, 0.1120000034570694, 0.9760000705718994, 0.0, 0.0, 0.0, 0.0, 0.0, 1.693920511577208E9, 2023-09-05 10:28:31.577
64.0, -253.36700439453125, 1543.8699951171875, 35.96848678588867, 11.187911033630371, 0.19200000166893005, 0.1120000034570694, 0.9760000705718994, 0.0, 0.0, 0.0, 0.0, 0.0, 1.6939205115777357E9, 2023-09-05 10:28:31.577
64.0, -215.69873046875, 1558.9678955078125, 35.8936882019043, 9.538615226745605, 0.19200000166893005, 0.1120000034570694, 0.9760000705718994, 0.0, 0.0, 0.0, 0.0, 0.0, 1.6939205115777357E9, 2023-09-05 10:28:31.577
65.0, -239.43588256835938, 1528.9552001953125, 33.750728607177734, 13.783401489257812, 0.19200000166893005, 0.1120000034570694, 0.9760000705718994, 0.0, 0.0, 0.0, 0.0, 0.0, 1.6939205115913024E9, 2023-09-05 10:28:31.591
65.0, -218.06982421875, 1544.44970703125, 39.154884338378906, 14.411704063415527, 0.19200000166893005, 0.1120000034570694, 0.9760000705718994, 0.0, 0.0, 0.0, 0.0, 0.0, 1.6939205115913024E9, 2023-09-05 10:28:31.591
66.0, -250.73785400390625, 1534.92041015625, 33.45527648925781, 9.763009071350098, 0.19200000166893005, 0.1120000034570694, 0.9760000705718994, 0.0, 0.0, 0.0, 0.0, 0.0, 1.6939205116070383E9, 2023-09-05 10:28:31.607
66.0, -246.5940399169922, 1531.468505859375, 35.43742370605469, 12.164024353027344, 0.19200000166893005, 0.1120000034570694, 0.9760000705718994, 0.0, 0.0, 0.0, 0.0, 0.0, 1.6939205116070383E9, 2023-09-05 10:28:31.607
67.0, -225.08587646484375, 1549.0721435546875, 33.81056594848633, 12.201423645019531, 0.19200000166893005, 0.1120000034570694, 0.9760000705718994, 0.0, 0.0, 0.0, 0.0, 0.0, 1.693920511607672E9, 2023-09-05 10:28:31.607
67.0, -228.57894897460938, 1533.345947265625, 39.88042449951172, 7.044101715087891, 0.19200000166893005, 0.1120000034570694, 0.9760000705718994, 0.0, 0.0, 0.0, 0.0, 0.0, 1.693920511607672E9, 2023-09-05 10:28:31.607
68.0, -248.0152130126953, 1546.5926513671875, 34.03495788574219, 11.386125564575195, 0.19200000166893005, 0.1120000034570694, 0.9760000705718994, 0.0, 0.0, 0.0, 0.0, 0.0, 1.6939205116213703E9, 2023-09-05 10:28:31.621
68.0, -256.1868896484375, 1506.6654052734375, 35.98344802856445, 11.004655838012695, 0.19200000166893005, 0.1120000034570694, 0.9760000705718994, 0.0, 0.0, 0.0, 0.0, 0.0, 1.6939205116213703E9, 2023-09-05 10:28:31.621
69.0, -204.3743133544922, 1562.9920654296875, 37.28493118286133, 8.267048835754395, 0.19200000166893005, 0.1120000034570694, 0.9760000705718994, 0.0, 0.0, 0.0, 0.0, 0.0, 1.6939205116370018E9, 2023-09-05 10:28:31.637
69.0, -207.65794372558594, 1570.13525390625, 34.7492790222168, 9.79666805267334, 0.19200000166893005, 0.1120000034570694, 0.9760000705718994, 0.0, 0.0, 0.0, 0.0, 0.0, 1.6939205116370018E9, 2023-09-05 10:28:31.637
70.0, -236.6533966064453, 1560.1048583984375, 34.87643814086914, 11.00091552734375, 0.19200000166893005, 0.1120000034570694, 0.9600000381469727, 0.0, 0.0, 0.0, 0.0, 0.0, 1.6939205116379335E9, 2023-09-05 10:28:31.637
70.0, -227.1054229736328, 1561.3389892578125, 33.61235046386719, 9.572274208068848, 0.19200000166893005, 0.1120000034570694, 0.9600000381469727, 0.0, 0.0, 0.0, 0.0, 0.0, 1.6939205116379335E9, 2023-09-05 10:28:31.637
71.0, -248.24708557128906, 1534.6361083984375, 34.6670036315918, 12.549234390258789, 0.19200000166893005, 0.12800000607967377, 0.9600000381469727, 0.0, 0.0, 0.0, 0.0, 0.0, 1.6939205116513274E9, 2023-09-05 10:28:31.651
71.0, -189.07064819335938, 1582.0281982421875, 39.07634353637695, 8.768195152282715, 0.19200000166893005, 0.12800000607967377, 0.9600000381469727, 0.0, 0.0, 0.0, 0.0, 0.0, 1.6939205116513274E9, 2023-09-05 10:28:31.651
72.0, -226.91842651367188, 1560.0225830078125, 31.776060104370117, 10.140738487243652, 0.19200000166893005, 0.12800000607967377, 0.9600000381469727, 0.0, 0.0, 0.0, 0.0, 0.0, 1.693920511666972E9, 2023-09-05 10:28:31.666
72.0, -236.24948120117188, 1551.6788330078125, 40.841575622558594, 10.503508567810059, 0.19200000166893005, 0.12800000607967377, 0.9600000381469727, 0.0, 0.0, 0.0, 0.0, 0.0, 1.693920511666972E9, 2023-09-05 10:28:31.666
73.0, -224.49497985839844, 1549.3863525390625, 36.05824661254883, 13.555267333984375, 0.19200000166893005, 0.12800000607967377, 0.9600000381469727, 0.0, 0.0, 0.0, 0.0, 0.0, 1.6939205116676855E9, 2023-09-05 10:28:31.667
73.0, -222.54273986816406, 1539.8309326171875, 36.49207305908203, 13.55152702331543, 0.19200000166893005, 0.12800000607967377, 0.9600000381469727, 0.0, 0.0, 0.0, 0.0, 0.0, 1.6939205116676855E9, 2023-09-05 10:28:31.667
74.0, -243.53480529785156, 1532.8260498046875, 30.624170303344727, 9.792927742004395, 0.19200000166893005, 0.12800000607967377, 0.9600000381469727, 0.0, 0.0, 0.0, 0.0, 0.0, 1.693920511681337E9, 2023-09-05 10:28:31.681
74.0, -204.841796875, 1551.1029052734375, 30.49701499938965, 13.55152702331543, 0.19200000166893005, 0.12800000607967377, 0.9600000381469727, 0.0, 0.0, 0.0, 0.0, 0.0, 1.693920511681337E9, 2023-09-05 10:28:31.681
75.0, -230.5723114013672, 1543.3426513671875, 35.83759307861328, 14.142431259155273, 0.19200000166893005, 0.12800000607967377, 0.9600000381469727, 0.0, 0.0, 0.0, 0.0, 0.0, 1.693920511696965E9, 2023-09-05 10:28:31.696
75.0, -204.01902770996094, 1563.6951904296875, 35.96848678588867, 14.105032920837402, 0.19200000166893005, 0.12800000607967377, 0.9600000381469727, 0.0, 0.0, 0.0, 0.0, 0.0, 1.693920511696965E9, 2023-09-05 10:28:31.696
76.0, -219.22171020507812, 1551.645263671875, 35.037254333496094, 12.279961585998535, 0.19200000166893005, 0.12800000607967377, 0.9600000381469727, 0.0, 0.0, 0.0, 0.0, 0.0, 1.6939205116976879E9, 2023-09-05 10:28:31.697
76.0, -223.72454833984375, 1555.4599609375, 34.96619415283203, 11.44970417022705, 0.19200000166893005, 0.12800000607967377, 0.9600000381469727, 0.0, 0.0, 0.0, 0.0, 0.0, 1.6939205116976879E9, 2023-09-05 10:28:31.697
77.0, -232.74893188476562, 1529.6396484375, 42.01964569091797, 11.625478744506836, 0.19200000166893005, 0.12800000607967377, 0.9600000381469727, 0.0, 0.0, 0.0, 0.0, 0.0, 1.693920511711315E9, 2023-09-05 10:28:31.711
77.0, -230.3965301513672, 1551.3272705078125, 31.009380340576172, 13.020462036132812, 0.19200000166893005, 0.12800000607967377, 0.9600000381469727, 0.0, 0.0, 0.0, 0.0, 0.0, 1.693920511711315E9, 2023-09-05 10:28:31.711
78.0, -223.22340393066406, 1553.2982177734375, 35.889949798583984, 9.96496295928955, 0.19200000166893005, 0.12800000607967377, 0.9600000381469727, 0.0, 0.0, 0.0, 0.0, 0.0, 1.6939205117269795E9, 2023-09-05 10:28:31.726
78.0, -219.44610595703125, 1553.8741455078125, 36.563133239746094, 7.15255880355835, 0.19200000166893005, 0.12800000607967377, 0.9600000381469727, 0.0, 0.0, 0.0, 0.0, 0.0, 1.6939205117269795E9, 2023-09-05 10:28:31.726
79.0, -213.34632873535156, 1560.5087890625, 36.43223571777344, 13.772181510925293, 0.19200000166893005, 0.12800000607967377, 0.9600000381469727, 0.0, 0.0, 0.0, 0.0, 0.0, 1.6939205117277303E9, 2023-09-05 10:28:31.727
79.0, -234.46554565429688, 1523.902587890625, 32.53152084350586, 8.846733093261719, 0.19200000166893005, 0.12800000607967377, 0.9600000381469727, 0.0, 0.0, 0.0, 0.0, 0.0, 1.6939205117277303E9, 2023-09-05 10:28:31.727
80.0, -244.8213348388672, 1537.5943603515625, 35.87125015258789, 10.185617446899414, 0.19200000166893005, 0.12800000607967377, 0.9760000705718994, 0.0, 0.0, 0.0, 0.0, 0.0, 1.6939205117413127E9, 2023-09-05 10:28:31.741
80.0, -218.39146423339844, 1566.7132568359375, 35.463600158691406, 9.830327033996582, 0.19200000166893005, 0.12800000607967377, 0.9760000705718994, 0.0, 0.0, 0.0, 0.0, 0.0, 1.6939205117413127E9, 2023-09-05 10:28:31.741
81.0, -178.45680236816406, 1613.7349853515625, 32.389404296875, 10.985956192016602, 0.19200000166893005, 0.12800000607967377, 0.9760000705718994, 0.0, 0.0, 0.0, 0.0, 0.0, 1.6939205117733684E9, 2023-09-05 10:28:31.773
81.0, -217.0076904296875, 1562.8349609375, 34.3678092956543, 9.116005897521973, 0.19200000166893005, 0.12800000607967377, 0.9760000705718994, 0.0, 0.0, 0.0, 0.0, 0.0, 1.6939205117733684E9, 2023-09-05 10:28:31.773
82.0, -237.4574737548828, 1552.071533203125, 32.0602912902832, 13.091519355773926, 0.19200000166893005, 0.12800000607967377, 0.9760000705718994, 0.0, 0.0, 0.0, 0.0, 0.0, 1.693920511774054E9, 2023-09-05 10:28:31.774
82.0, -220.22401428222656, 1581.239013671875, 35.59449768066406, 10.671804428100586, 0.19200000166893005, 0.12800000607967377, 0.9760000705718994, 0.0, 0.0, 0.0, 0.0, 0.0, 1.693920511774054E9, 2023-09-05 10:28:31.774
83.0, -208.3685302734375, 1582.6153564453125, 31.592803955078125, 10.731642723083496, 0.19200000166893005, 0.12800000607967377, 0.9760000705718994, 0.0, 0.0, 0.0, 0.0, 0.0, 1.6939205117748532E9, 2023-09-05 10:28:31.774
83.0, -198.71209716796875, 1598.9063720703125, 33.66096878051758, 11.184170722961426, 0.19200000166893005, 0.12800000607967377, 0.9760000705718994, 0.0, 0.0, 0.0, 0.0, 0.0, 1.6939205117748532E9, 2023-09-05 10:28:31.774
84.0, -219.3114776611328, 1591.0263671875, 36.52199172973633, 12.365979194641113, 0.19200000166893005, 0.12800000607967377, 0.9760000705718994, 0.0, 0.0, 0.0, 0.0, 0.0, 1.6939205117755973E9, 2023-09-05 10:28:31.775
84.0, -209.48675537109375, 1578.890380859375, 36.57061004638672, 17.104433059692383, 0.19200000166893005, 0.12800000607967377, 0.9760000705718994, 0.0, 0.0, 0.0, 0.0, 0.0, 1.6939205117755973E9, 2023-09-05 10:28:31.775
85.0, -185.27838134765625, 1580.0235595703125, 37.11289596557617, 11.150511741638184, 0.19200000166893005, 0.12800000607967377, 0.9760000705718994, 0.0, 0.0, 0.0, 0.0, 0.0, 1.6939205118020115E9, 2023-09-05 10:28:31.802
85.0, -175.7715606689453, 1596.598876953125, 32.179969787597656, 8.865432739257812, 0.19200000166893005, 0.12800000607967377, 0.9760000705718994, 0.0, 0.0, 0.0, 0.0, 0.0, 1.6939205118020115E9, 2023-09-05 10:28:31.802
86.0, -216.26719665527344, 1595.9405517578125, 33.174781799316406, 17.0371150970459, 0.19200000166893005, 0.12800000607967377, 0.9760000705718994, 0.0, 0.0, 0.0, 0.0, 0.0, 1.6939205118027315E9, 2023-09-05 10:28:31.802
86.0, -206.74166870117188, 1604.0860595703125, 34.95871353149414, 15.152204513549805, 0.19200000166893005, 0.12800000607967377, 0.9760000705718994, 0.0, 0.0, 0.0, 0.0, 0.0, 1.6939205118027315E9, 2023-09-05 10:28:31.802
87.0, -189.21275329589844, 1594.0819091796875, 31.200115203857422, 14.766995429992676, 0.19200000166893005, 0.12800000607967377, 0.9760000705718994, 0.0, 0.0, 0.0, 0.0, 0.0, 1.693920511833356E9, 2023-09-05 10:28:31.833
87.0, -207.564453125, 1576.21630859375, 33.53007125854492, 11.057014465332031, 0.19200000166893005, 0.12800000607967377, 0.9760000705718994, 0.0, 0.0, 0.0, 0.0, 0.0, 1.693920511833356E9, 2023-09-05 10:28:31.833
88.0, -252.7125244140625, 1536.868896484375, 34.72684097290039, 11.920930862426758, 0.19200000166893005, 0.12800000607967377, 0.9760000705718994, 0.0, 0.0, 0.0, 0.0, 0.0, 1.6939205118340788E9, 2023-09-05 10:28:31.834
88.0, -243.6357879638672, 1542.53857421875, 30.04822540283203, 12.713789939880371, 0.19200000166893005, 0.12800000607967377, 0.9760000705718994, 0.0, 0.0, 0.0, 0.0, 0.0, 1.6939205118340788E9, 2023-09-05 10:28:31.834
89.0, -234.8544921875, 1558.12646484375, 33.91154098510742, 13.719822883605957, 0.19200000166893005, 0.12800000607967377, 0.9760000705718994, 0.0, 0.0, 0.0, 0.0, 0.0, 1.693920511834886E9, 2023-09-05 10:28:31.834
89.0, -205.02879333496094, 1571.0328369140625, 29.83131217956543, 12.354759216308594, 0.19200000166893005, 0.12800000607967377, 0.9760000705718994, 0.0, 0.0, 0.0, 0.0, 0.0, 1.693920511834886E9, 2023-09-05 10:28:31.834
90.0, -216.4654083251953, 1570.8046875, 27.815505981445312, 13.162577629089355, 0.19200000166893005, 0.12800000607967377, 0.9760000705718994, 0.0, 0.0, 0.0, 0.0, 0.0, 1.6939205118357391E9, 2023-09-05 10:28:31.835
90.0, -217.45648193359375, 1561.37646484375, 34.38650894165039, 14.26210880279541, 0.19200000166893005, 0.12800000607967377, 0.9760000705718994, 0.0, 0.0, 0.0, 0.0, 0.0, 1.6939205118357391E9, 2023-09-05 10:28:31.835
91.0, -238.6729278564453, 1523.32666015625, 34.28179168701172, 14.677237510681152, 0.19200000166893005, 0.12800000607967377, 0.9760000705718994, 0.0, 0.0, 0.0, 0.0, 0.0, 1.693920511846286E9, 2023-09-05 10:28:31.846
91.0, -228.19374084472656, 1537.220458984375, 29.44236183166504, 8.540061950683594, 0.19200000166893005, 0.12800000607967377, 0.9760000705718994, 0.0, 0.0, 0.0, 0.0, 0.0, 1.693920511846286E9, 2023-09-05 10:28:31.846
92.0, -210.3618927001953, 1570.7261962890625, 29.932289123535156, 11.879792213439941, 0.19200000166893005, 0.12800000607967377, 0.9760000705718994, 0.0, 0.0, 0.0, 0.0, 0.0, 1.6939205118613153E9, 2023-09-05 10:28:31.861
92.0, -209.6326141357422, 1592.8402099609375, 26.715974807739258, 13.136398315429688, 0.19200000166893005, 0.12800000607967377, 0.9760000705718994, 0.0, 0.0, 0.0, 0.0, 0.0, 1.6939205118613153E9, 2023-09-05 10:28:31.861
93.0, -227.24380493164062, 1655.6219482421875, 28.492427825927734, 13.843239784240723, 0.19200000166893005, 0.12800000607967377, 0.9760000705718994, 0.0, 0.0, 0.0, 0.0, 0.0, 1.693920511876942E9, 2023-09-05 10:28:31.876
93.0, -176.63172912597656, 1754.762939453125, 31.147756576538086, 14.396744728088379, 0.19200000166893005, 0.12800000607967377, 0.9760000705718994, 0.0, 0.0, 0.0, 0.0, 0.0, 1.693920511876942E9, 2023-09-05 10:28:31.876
94.0, -179.58999633789062, 1824.51953125, 26.420522689819336, 10.327733993530273, 0.19200000166893005, 0.12800000607967377, 0.9760000705718994, 0.0, 0.0, 0.0, 0.0, 0.0, 1.6939205118776605E9, 2023-09-05 10:28:31.877
94.0, -107.38748931884766, 1845.5789794921875, 30.21278190612793, 11.887271881103516, 0.19200000166893005, 0.12800000607967377, 0.9760000705718994, 0.0, 0.0, 0.0, 0.0, 0.0, 1.6939205118776605E9, 2023-09-05 10:28:31.877
95.0, -14.626749038696289, 1837.040771484375, 29.39374351501465, 14.116251945495605, 0.19200000166893005, 0.12800000607967377, 0.9760000705718994, 0.0, 0.0, 0.0, 0.0, 0.0, 1.6939205118913326E9, 2023-09-05 10:28:31.891
95.0, -18.721939086914062, 1643.362548828125, 31.196374893188477, 10.436190605163574, 0.19200000166893005, 0.12800000607967377, 0.9760000705718994, 0.0, 0.0, 0.0, 0.0, 0.0, 1.6939205118913326E9, 2023-09-05 10:28:31.891
96.0, -107.41740417480469, 1865.9857177734375, 32.84941101074219, 15.212042808532715, 0.19200000166893005, 0.12800000607967377, 0.9760000705718994, 0.0, 0.0, 0.0, 0.0, 0.0, 1.693920511906977E9, 2023-09-05 10:28:31.906
96.0, -253.18374633789062, 1918.83984375, 30.747587203979492, 12.044347763061523, 0.19200000166893005, 0.12800000607967377, 0.9760000705718994, 0.0, 0.0, 0.0, 0.0, 0.0, 1.693920511906977E9, 2023-09-05 10:28:31.906
97.0, -378.3282775878906, 1724.974609375, 21.547433853149414, 12.983062744140625, 0.19200000166893005, 0.12800000607967377, 0.9760000705718994, 0.0, 0.0, 0.0, 0.0, 0.0, 1.693920511907767E9, 2023-09-05 10:28:31.907
97.0, -318.6170349121094, 1863.111572265625, 30.422216415405273, 10.780261993408203, 0.19200000166893005, 0.12800000607967377, 0.9760000705718994, 0.0, 0.0, 0.0, 0.0, 0.0, 1.693920511907767E9, 2023-09-05 10:28:31.907
98.0, -324.0922546386719, 1994.4456787109375, 33.62356948852539, 12.998022079467773, 0.19200000166893005, 0.12800000607967377, 0.9760000705718994, 0.0, 0.0, 0.0, 0.0, 0.0, 1.693920511921286E9, 2023-09-05 10:28:31.921
98.0, -321.3434143066406, 2116.190673828125, 31.510526657104492, 15.810426712036133, 0.19200000166893005, 0.12800000607967377, 0.9760000705718994, 0.0, 0.0, 0.0, 0.0, 0.0, 1.693920511921286E9, 2023-09-05 10:28:31.921
99.0, -299.67071533203125, 2309.360107421875, 30.407257080078125, 10.888718605041504, 0.19200000166893005, 0.12800000607967377, 0.9760000705718994, 0.0, 0.0, 0.0, 0.0, 0.0, 1.6939205119369328E9, 2023-09-05 10:28:31.936
99.0, -305.0860900878906, 2408.774169921875, 32.23606872558594, 12.627772331237793, 0.19200000166893005, 0.12800000607967377, 0.9760000705718994, 0.0, 0.0, 0.0, 0.0, 0.0, 1.6939205119369328E9, 2023-09-05 10:28:31.936
100.0, -252.7125244140625, 2511.052978515625, 23.989587783813477, 15.533674240112305, 0.19200000166893005, 0.12800000607967377, 0.9760000705718994, 0.0, 0.0, 0.0, 0.0, 0.0, 1.6939205119377315E9, 2023-09-05 10:28:31.937
100.0, -247.57763671875, 2536.74609375, 21.420276641845703, 10.514728546142578, 0.19200000166893005, 0.12800000607967377, 0.9760000705718994, 0.0, 0.0, 0.0, 0.0, 0.0, 1.6939205119377315E9, 2023-09-05 10:28:31.937
0.0, -201.98451232910156, 149.51185607910156, 30.016437530517578, 13.173797607421875, 0.19200000166893005, 0.12800000607967377, 0.9760000705718994, 0.0, 0.0, 0.0, 0.0, 0.0, 1.6939205119521773E9, 2023-09-05 10:28:31.952
1.0, -249.3166961669922, 151.40423583984375, 28.08664894104004, 10.675544738769531, 0.19200000166893005, 0.12800000607967377, 0.9760000705718994, 0.0, 0.0, 0.0, 0.0, 0.0, 1.6939205119527729E9, 2023-09-05 10:28:31.952
1.0, -209.15016174316406, 170.2084503173828, 31.175806045532227, 9.590973854064941, 0.19200000166893005, 0.12800000607967377, 0.9760000705718994, 0.0, 0.0, 0.0, 0.0, 0.0, 1.6939205119527729E9, 2023-09-05 10:28:31.952
2.0, -209.69993591308594, 188.6125030517578, 26.931018829345703, 9.830327033996582, 0.19200000166893005, 0.12800000607967377, 0.9760000705718994, 0.0, 0.0, 0.0, 0.0, 0.0, 1.6939205119696467E9, 2023-09-05 10:28:31.969
2.0, -230.2805938720703, 140.24063110351562, 27.11801528930664, 11.019615173339844, 0.19200000166893005, 0.12800000607967377, 0.9760000705718994, 0.0, 0.0, 0.0, 0.0, 0.0, 1.6939205119696467E9, 2023-09-05 10:28:31.969
3.0, -200.55213928222656, 179.3562469482422, 24.69455909729004, 8.65225887298584, 0.19200000166893005, 0.12800000607967377, 0.9760000705718994, 0.0, 0.0, 0.0, 0.0, 0.0, 1.6939205119983425E9, 2023-09-05 10:28:31.998
3.0, -219.9397735595703, 180.0107421875, 27.30875015258789, 10.600746154785156, 0.19200000166893005, 0.12800000607967377, 0.9760000705718994, 0.0, 0.0, 0.0, 0.0, 0.0, 1.6939205119983425E9, 2023-09-05 10:28:31.998
4.0, -224.4351348876953, 190.06358337402344, 29.94537925720215, 12.545494079589844, 0.19200000166893005, 0.12800000607967377, 0.9760000705718994, 0.0, 0.0, 0.0, 0.0, 0.0, 1.693920511999026E9, 2023-09-05 10:28:31.999
4.0, -233.52308654785156, 165.86643981933594, 26.055883407592773, 13.353312492370605, 0.19200000166893005, 0.12800000607967377, 0.9760000705718994, 0.0, 0.0, 0.0, 0.0, 0.0, 1.693920511999026E9, 2023-09-05 10:28:31.999
5.0, -205.63092041015625, 191.8737030029297, 28.307302474975586, 15.047487258911133, 0.19200000166893005, 0.12800000607967377, 0.9760000705718994, 0.0, 0.0, 0.0, 0.0, 0.0, 1.6939205119999633E9, 2023-09-05 10:28:31.999
5.0, -223.91903686523438, 181.33465576171875, 28.284862518310547, 9.16462516784668, 0.19200000166893005, 0.12800000607967377, 0.9760000705718994, 0.0, 0.0, 0.0, 0.0, 0.0, 1.6939205119999633E9, 2023-09-05 10:28:31.999
6.0, -217.75567626953125, 168.06922912597656, 28.823408126831055, 12.257521629333496, 0.19200000166893005, 0.12800000607967377, 0.9760000705718994, 0.0, 0.0, 0.0, 0.0, 0.0, 1.693920512000579E9, 2023-09-05 10:28:32.000
6.0, -209.15016174316406, 180.57919311523438, 24.72821807861328, 13.398191452026367, 0.19200000166893005, 0.12800000607967377, 0.9760000705718994, 0.0, 0.0, 0.0, 0.0, 0.0, 1.693920512000579E9, 2023-09-05 10:28:32.000
7.0, -217.75193786621094, 196.9225616455078, 30.068796157836914, 13.1663179397583, 0.19200000166893005, 0.12800000607967377, 0.9760000705718994, 0.0, 0.0, 0.0, 0.0, 0.0, 1.6939205120112908E9, 2023-09-05 10:28:32.011
7.0, -219.06837463378906, 202.45761108398438, 31.71809196472168, 14.359345436096191, 0.19200000166893005, 0.12800000607967377, 0.9760000705718994, 0.0, 0.0, 0.0, 0.0, 0.0, 1.6939205120112908E9, 2023-09-05 10:28:32.011
8.0, -208.45828247070312, 205.41587829589844, 26.41865348815918, 11.292628288269043, 0.19200000166893005, 0.12800000607967377, 0.9760000705718994, 0.0, 0.0, 0.0, 0.0, 0.0, 1.6939205120263512E9, 2023-09-05 10:28:32.026
8.0, -218.69064331054688, 174.89828491210938, 24.271949768066406, 12.852166175842285, 0.19200000166893005, 0.12800000607967377, 0.9760000705718994, 0.0, 0.0, 0.0, 0.0, 0.0, 1.6939205120263512E9, 2023-09-05 10:28:32.026
9.0, -205.17465209960938, 210.19920349121094, 23.6623477935791, 13.458029747009277, 0.19200000166893005, 0.12800000607967377, 0.9760000705718994, 0.0, 0.0, 0.0, 0.0, 0.0, 1.6939205120420089E9, 2023-09-05 10:28:32.042
9.0, -212.82275390625, 203.62820434570312, 23.015344619750977, 10.641885757446289, 0.19200000166893005, 0.12800000607967377, 0.9760000705718994, 0.0, 0.0, 0.0, 0.0, 0.0, 1.6939205120420089E9, 2023-09-05 10:28:32.042
10.0, -210.0552215576172, 216.18304443359375, 23.7034854888916, 10.567087173461914, 0.19200000166893005, 0.12800000607967377, 0.9600000381469727, 0.0, 0.0, 0.0, 0.0, 0.0, 1.693920512042728E9, 2023-09-05 10:28:32.042
10.0, -210.06643676757812, 202.74185180664062, 21.956953048706055, 9.684471130371094, 0.19200000166893005, 0.12800000607967377, 0.9600000381469727, 0.0, 0.0, 0.0, 0.0, 0.0, 1.693920512042728E9, 2023-09-05 10:28:32.042
11.0, -215.93060302734375, 234.6581573486328, 22.944286346435547, 8.33062744140625, 0.19200000166893005, 0.12800000607967377, 0.9600000381469727, 0.0, 0.0, 0.0, 0.0, 0.0, 1.6939205120563653E9, 2023-09-05 10:28:32.056
11.0, -147.87564086914062, 296.8152770996094, 30.693359375, 13.932997703552246, 0.19200000166893005, 0.12800000607967377, 0.9600000381469727, 0.0, 0.0, 0.0, 0.0, 0.0, 1.6939205120563653E9, 2023-09-05 10:28:32.056
12.0, -159.8134002685547, 294.6872863769531, 23.800724029541016, 7.055321216583252, 0.19200000166893005, 0.12800000607967377, 0.9600000381469727, 0.0, 0.0, 0.0, 0.0, 0.0, 1.693920512071998E9, 2023-09-05 10:28:32.071
12.0, -157.8424835205078, 303.6667785644531, 23.34445571899414, 12.59411334991455, 0.19200000166893005, 0.12800000607967377, 0.9600000381469727, 0.0, 0.0, 0.0, 0.0, 0.0, 1.693920512071998E9, 2023-09-05 10:28:32.071
13.0, -165.0305633544922, 308.42767333984375, 26.747764587402344, 12.160284996032715, 0.19200000166893005, 0.12800000607967377, 0.9600000381469727, 0.0, 0.0, 0.0, 0.0, 0.0, 1.6939205120727503E9, 2023-09-05 10:28:32.072
13.0, -171.8147430419922, 323.6528015136719, 27.693958282470703, 10.540907859802246, 0.19200000166893005, 0.12800000607967377, 0.9600000381469727, 0.0, 0.0, 0.0, 0.0, 0.0, 1.6939205120727503E9, 2023-09-05 10:28:32.072
14.0, -138.52215576171875, 352.715576171875, 25.52107810974121, 13.409411430358887, 0.19200000166893005, 0.12800000607967377, 0.9600000381469727, 0.0, 0.0, 0.0, 0.0, 0.0, 1.6939205120864012E9, 2023-09-05 10:28:32.086
14.0, -139.75257873535156, 354.92584228515625, 28.056730270385742, 12.653951644897461, 0.19200000166893005, 0.12800000607967377, 0.9600000381469727, 0.0, 0.0, 0.0, 0.0, 0.0, 1.6939205120864012E9, 2023-09-05 10:28:32.086
15.0, -113.08335876464844, 366.953369140625, 26.32515525817871, 10.855059623718262, 0.19200000166893005, 0.12800000607967377, 0.9600000381469727, 0.0, 0.0, 0.0, 0.0, 0.0, 1.69392051210193E9, 2023-09-05 10:28:32.101
15.0, -202.71754455566406, 353.2840270996094, 25.524816513061523, 10.211796760559082, 0.19200000166893005, 0.12800000607967377, 0.9600000381469727, 0.0, 0.0, 0.0, 0.0, 0.0, 1.69392051210193E9, 2023-09-05 10:28:32.101
16.0, -165.58033752441406, 332.71832275390625, 23.411773681640625, 11.52450180053711, 0.19200000166893005, 0.12800000607967377, 0.9600000381469727, 0.0, 0.0, 0.0, 0.0, 0.0, 1.6939205121026368E9, 2023-09-05 10:28:32.102
16.0, -133.6976776123047, 334.73040771484375, 30.057575225830078, 11.696537017822266, 0.19200000166893005, 0.12800000607967377, 0.9600000381469727, 0.0, 0.0, 0.0, 0.0, 0.0, 1.6939205121026368E9, 2023-09-05 10:28:32.102
17.0, -179.19357299804688, 288.6884765625, 25.91750717163086, 14.583740234375, 0.19200000166893005, 0.12800000607967377, 0.9600000381469727, 0.0, 0.0, 0.0, 0.0, 0.0, 1.6939205121164007E9, 2023-09-05 10:28:32.116
17.0, -160.3781280517578, 307.1448974609375, 26.48223114013672, 11.999468803405762, 0.19200000166893005, 0.12800000607967377, 0.9600000381469727, 0.0, 0.0, 0.0, 0.0, 0.0, 1.6939205121164007E9, 2023-09-05 10:28:32.116
18.0, -180.36041259765625, 267.935791015625, 19.623254776000977, 12.362238883972168, 0.19200000166893005, 0.12800000607967377, 0.9600000381469727, 0.0, 0.0, 0.0, 0.0, 0.0, 1.6939205121320128E9, 2023-09-05 10:28:32.132
18.0, -180.9326171875, 237.03672790527344, 25.143346786499023, 10.937337875366211, 0.19200000166893005, 0.12800000607967377, 0.9600000381469727, 0.0, 0.0, 0.0, 0.0, 0.0, 1.6939205121320128E9, 2023-09-05 10:28:32.132
19.0, -192.9339599609375, 214.44024658203125, 22.58151626586914, 10.600746154785156, 0.19200000166893005, 0.12800000607967377, 0.9600000381469727, 0.0, 0.0, 0.0, 0.0, 0.0, 1.6939205121327724E9, 2023-09-05 10:28:32.132
19.0, -231.2529754638672, 195.03392028808594, 26.452312469482422, 12.137845039367676, 0.19200000166893005, 0.12800000607967377, 0.9600000381469727, 0.0, 0.0, 0.0, 0.0, 0.0, 1.6939205121327724E9, 2023-09-05 10:28:32.132
20.0, -246.7772979736328, 146.15342712402344, 27.974451065063477, 13.147618293762207, 0.19200000166893005, 0.12800000607967377, 0.9760000705718994, 0.0, 0.0, 0.0, 0.0, 0.0, 1.6939205121462748E9, 2023-09-05 10:28:32.146
20.0, -152.1578369140625, 189.6297607421875, 27.559322357177734, 12.571673393249512, 0.19200000166893005, 0.12800000607967377, 0.9760000705718994, 0.0, 0.0, 0.0, 0.0, 0.0, 1.6939205121462748E9, 2023-09-05 10:28:32.146
21.0, -211.82044982910156, 158.70079040527344, 23.565109252929688, 11.692797660827637, 0.19200000166893005, 0.12800000607967377, 0.9760000705718994, 0.0, 0.0, 0.0, 0.0, 0.0, 1.6939205121620183E9, 2023-09-05 10:28:32.162
21.0, -232.33380126953125, 133.94638061523438, 25.816530227661133, 7.425571441650391, 0.19200000166893005, 0.12800000607967377, 0.9760000705718994, 0.0, 0.0, 0.0, 0.0, 0.0, 1.6939205121620183E9, 2023-09-05 10:28:32.162
22.0, -222.318359375, 117.57310485839844, 16.530357360839844, 11.086933135986328, 0.19200000166893005, 0.12800000607967377, 0.9760000705718994, 0.0, 0.0, 0.0, 0.0, 0.0, 1.6939205121627257E9, 2023-09-05 10:28:32.162
22.0, -215.54539489746094, 106.62641906738281, 29.309595108032227, 14.112512588500977, 0.19200000166893005, 0.12800000607967377, 0.9760000705718994, 0.0, 0.0, 0.0, 0.0, 0.0, 1.6939205121627257E9, 2023-09-05 10:28:32.162
23.0, -240.9281005859375, 89.91654205322266, 30.053836822509766, 12.904524803161621, 0.19200000166893005, 0.12800000607967377, 0.9760000705718994, 0.0, 0.0, 0.0, 0.0, 0.0, 1.6939205121762872E9, 2023-09-05 10:28:32.176
23.0, -227.3447723388672, 94.12019348144531, 21.347349166870117, 16.08717918395996, 0.19200000166893005, 0.12800000607967377, 0.9760000705718994, 0.0, 0.0, 0.0, 0.0, 0.0, 1.6939205121762872E9, 2023-09-05 10:28:32.176
24.0, -212.47119140625, 111.75382232666016, 18.912673950195312, 10.914897918701172, 0.19200000166893005, 0.12800000607967377, 0.9760000705718994, 0.0, 0.0, 0.0, 0.0, 0.0, 1.6939205122085154E9, 2023-09-05 10:28:32.208
24.0, -212.2692413330078, 101.64861297607422, 26.14937973022461, 13.23737621307373, 0.19200000166893005, 0.12800000607967377, 0.9760000705718994, 0.0, 0.0, 0.0, 0.0, 0.0, 1.6939205122085154E9, 2023-09-05 10:28:32.208
25.0, -242.64097595214844, 74.68019104003906, 31.370281219482422, 14.57625961303711, 0.19200000166893005, 0.12800000607967377, 0.9760000705718994, 0.0, 0.0, 0.0, 0.0, 0.0, 1.6939205122090943E9, 2023-09-05 10:28:32.209
25.0, -240.63638305664062, 73.93595123291016, 20.505870819091797, 14.198530197143555, 0.19200000166893005, 0.12800000607967377, 0.9760000705718994, 0.0, 0.0, 0.0, 0.0, 0.0, 1.6939205122090943E9, 2023-09-05 10:28:32.209
26.0, -224.595947265625, 110.61315155029297, 24.971311569213867, 9.123485565185547, 0.19200000166893005, 0.12800000607967377, 0.9760000705718994, 0.0, 0.0, 0.0, 0.0, 0.0, 1.6939205122098856E9, 2023-09-05 10:28:32.209
26.0, -235.74459838867188, 69.95295715332031, 23.823162078857422, 11.958330154418945, 0.19200000166893005, 0.12800000607967377, 0.9760000705718994, 0.0, 0.0, 0.0, 0.0, 0.0, 1.6939205122098856E9, 2023-09-05 10:28:32.209
27.0, -195.7650604248047, 111.41349029541016, 23.497791290283203, 8.996329307556152, 0.19200000166893005, 0.12800000607967377, 0.9760000705718994, 0.0, 0.0, 0.0, 0.0, 0.0, 1.6939205122105594E9, 2023-09-05 10:28:32.210
27.0, -211.06874084472656, 82.69853973388672, 23.912919998168945, 10.997176170349121, 0.19200000166893005, 0.12800000607967377, 0.9760000705718994, 0.0, 0.0, 0.0, 0.0, 0.0, 1.6939205122105594E9, 2023-09-05 10:28:32.210
28.0, -258.53179931640625, 80.12174987792969, 26.242877960205078, 11.412304878234863, 0.19200000166893005, 0.12800000607967377, 0.9760000705718994, 0.0, 0.0, 0.0, 0.0, 0.0, 1.693920512221374E9, 2023-09-05 10:28:32.221
28.0, -239.85848999023438, 78.41635131835938, 21.706378936767578, 10.092120170593262, 0.19200000166893005, 0.12800000607967377, 0.9760000705718994, 0.0, 0.0, 0.0, 0.0, 0.0, 1.693920512221374E9, 2023-09-05 10:28:32.221
29.0, -231.10337829589844, 96.0873794555664, 27.256391525268555, 11.498322486877441, 0.19200000166893005, 0.12800000607967377, 0.9760000705718994, 0.0, 0.0, 0.0, 0.0, 0.0, 1.693920512236322E9, 2023-09-05 10:28:32.236
29.0, -241.4180145263672, 71.32176208496094, 23.587549209594727, 8.042654991149902, 0.19200000166893005, 0.12800000607967377, 0.9760000705718994, 0.0, 0.0, 0.0, 0.0, 0.0, 1.693920512236322E9, 2023-09-05 10:28:32.236
30.0, -220.35116577148438, 107.94286346435547, 24.500083923339844, 10.529687881469727, 0.19200000166893005, 0.12800000607967377, 0.9760000705718994, 0.0, 0.0, 0.0, 0.0, 0.0, 1.693920512268406E9, 2023-09-05 10:28:32.268
30.0, -220.17538452148438, 96.85779571533203, 29.997737884521484, 9.33292007446289, 0.19200000166893005, 0.12800000607967377, 0.9760000705718994, 0.0, 0.0, 0.0, 0.0, 0.0, 1.693920512268406E9, 2023-09-05 10:28:32.268
31.0, -229.40921020507812, 93.8583984375, 26.478490829467773, 14.606179237365723, 0.19200000166893005, 0.12800000607967377, 0.9760000705718994, 0.0, 0.0, 0.0, 0.0, 0.0, 1.6939205122690136E9, 2023-09-05 10:28:32.269
31.0, -244.57823181152344, 90.60468292236328, 29.66862678527832, 14.299507141113281, 0.19200000166893005, 0.12800000607967377, 0.9760000705718994, 0.0, 0.0, 0.0, 0.0, 0.0, 1.6939205122690136E9, 2023-09-05 10:28:32.269
32.0, -217.1460723876953, 95.34687805175781, 27.723878860473633, 13.024201393127441, 0.19200000166893005, 0.12800000607967377, 0.9760000705718994, 0.0, 0.0, 0.0, 0.0, 0.0, 1.693920512269752E9, 2023-09-05 10:28:32.269
32.0, -219.92481994628906, 107.10138702392578, 25.072288513183594, 9.42641830444336, 0.19200000166893005, 0.12800000607967377, 0.9760000705718994, 0.0, 0.0, 0.0, 0.0, 0.0, 1.693920512269752E9, 2023-09-05 10:28:32.269
33.0, -237.1470489501953, 82.34324645996094, 28.95430564880371, 6.729949951171875, 0.19200000166893005, 0.12800000607967377, 0.9760000705718994, 0.0, 0.0, 0.0, 0.0, 0.0, 1.6939205122705283E9, 2023-09-05 10:28:32.270
33.0, -231.44744873046875, 71.14598846435547, 24.36170768737793, 12.560454368591309, 0.19200000166893005, 0.12800000607967377, 0.9760000705718994, 0.0, 0.0, 0.0, 0.0, 0.0, 1.6939205122705283E9, 2023-09-05 10:28:32.270
34.0, -181.0223846435547, 142.62295532226562, 22.81338882446289, 15.701970100402832, 0.19200000166893005, 0.12800000607967377, 0.9760000705718994, 0.0, 0.0, 0.0, 0.0, 0.0, 1.6939205122813673E9, 2023-09-05 10:28:32.281
34.0, -202.35850524902344, 109.00125122070312, 25.206926345825195, 11.928410530090332, 0.19200000166893005, 0.12800000607967377, 0.9760000705718994, 0.0, 0.0, 0.0, 0.0, 0.0, 1.6939205122813673E9, 2023-09-05 10:28:32.281
35.0, -209.2137451171875, 110.13444519042969, 25.248064041137695, 12.298661231994629, 0.19200000166893005, 0.12800000607967377, 0.9760000705718994, 0.0, 0.0, 0.0, 0.0, 0.0, 1.6939205122962909E9, 2023-09-05 10:28:32.296
35.0, -256.2616882324219, 69.2087173461914, 21.201492309570312, 14.666017532348633, 0.19200000166893005, 0.12800000607967377, 0.9760000705718994, 0.0, 0.0, 0.0, 0.0, 0.0, 1.6939205122962909E9, 2023-09-05 10:28:32.296
36.0, -203.66746520996094, 136.07064819335938, 27.215251922607422, 14.161130905151367, 0.19200000166893005, 0.12800000607967377, 0.9760000705718994, 0.0, 0.0, 0.0, 0.0, 0.0, 1.693920512328508E9, 2023-09-05 10:28:32.328
36.0, -206.4649200439453, 118.78483581542969, 21.86719512939453, 11.973289489746094, 0.19200000166893005, 0.12800000607967377, 0.9760000705718994, 0.0, 0.0, 0.0, 0.0, 0.0, 1.693920512328508E9, 2023-09-05 10:28:32.328
37.0, -215.21627807617188, 103.88880920410156, 28.456899642944336, 13.416891098022461, 0.19200000166893005, 0.12800000607967377, 0.9760000705718994, 0.0, 0.0, 0.0, 0.0, 0.0, 1.6939205123291461E9, 2023-09-05 10:28:32.329
37.0, -218.6121063232422, 118.12287139892578, 25.184486389160156, 14.037714958190918, 0.19200000166893005, 0.12800000607967377, 0.9760000705718994, 0.0, 0.0, 0.0, 0.0, 0.0, 1.6939205123291461E9, 2023-09-05 10:28:32.329
38.0, -235.14620971679688, 101.53641510009766, 26.067102432250977, 13.207456588745117, 0.19200000166893005, 0.12800000607967377, 0.9760000705718994, 0.0, 0.0, 0.0, 0.0, 0.0, 1.693920512329847E9, 2023-09-05 10:28:32.329
38.0, -207.4260711669922, 105.02574157714844, 28.670072555541992, 7.904278755187988, 0.19200000166893005, 0.12800000607967377, 0.9760000705718994, 0.0, 0.0, 0.0, 0.0, 0.0, 1.693920512329847E9, 2023-09-05 10:28:32.329
39.0, -237.1171417236328, 80.54061889648438, 28.243724822998047, 14.370565414428711, 0.19200000166893005, 0.12800000607967377, 0.9760000705718994, 0.0, 0.0, 0.0, 0.0, 0.0, 1.6939205123305943E9, 2023-09-05 10:28:32.330
39.0, -231.7615966796875, 98.46969604492188, 29.156259536743164, 13.716083526611328, 0.19200000166893005, 0.12800000607967377, 0.9760000705718994, 0.0, 0.0, 0.0, 0.0, 0.0, 1.6939205123305943E9, 2023-09-05 10:28:32.330
40.0, -235.25840759277344, 94.2997055053711, 15.94693374633789, 12.642731666564941, 0.19200000166893005, 0.12800000607967377, 0.9760000705718994, 0.0, 0.0, 0.0, 0.0, 0.0, 1.6939205123412712E9, 2023-09-05 10:28:32.341
40.0, -204.1611328125, 101.70096588134766, 23.07518196105957, 10.151958465576172, 0.19200000166893005, 0.12800000607967377, 0.9760000705718994, 0.0, 0.0, 0.0, 0.0, 0.0, 1.6939205123412712E9, 2023-09-05 10:28:32.341
41.0, -234.3533477783203, 81.80470275878906, 21.18279266357422, 10.638145446777344, 0.19200000166893005, 0.12800000607967377, 0.9760000705718994, 0.0, 0.0, 0.0, 0.0, 0.0, 1.693920512356294E9, 2023-09-05 10:28:32.356
41.0, -221.77232360839844, 117.46839141845703, 30.259531021118164, 10.963517189025879, 0.19200000166893005, 0.12800000607967377, 0.9760000705718994, 0.0, 0.0, 0.0, 0.0, 0.0, 1.693920512356294E9, 2023-09-05 10:28:32.356
42.0, -268.50238037109375, 71.56859588623047, 21.49320411682129, 6.636452674865723, 0.19200000166893005, 0.12800000607967377, 0.9760000705718994, 0.0, 0.0, 0.0, 0.0, 0.0, 1.69392051238877E9, 2023-09-05 10:28:32.388
42.0, -194.38877868652344, 113.5938491821289, 24.96383285522461, 12.059307098388672, 0.19200000166893005, 0.12800000607967377, 0.9760000705718994, 0.0, 0.0, 0.0, 0.0, 0.0, 1.69392051238877E9, 2023-09-05 10:28:32.388
43.0, -207.811279296875, 95.33940124511719, 25.60709571838379, 6.348480224609375, 0.19200000166893005, 0.12800000607967377, 0.9760000705718994, 0.0, 0.0, 0.0, 0.0, 0.0, 1.693920512389063E9, 2023-09-05 10:28:32.389
43.0, -226.95956420898438, 87.7960205078125, 29.3432559967041, 9.280561447143555, 0.19200000166893005, 0.12800000607967377, 0.9760000705718994, 0.0, 0.0, 0.0, 0.0, 0.0, 1.693920512389063E9, 2023-09-05 10:28:32.389
44.0, -237.76414489746094, 100.86323547363281, 21.83353614807129, 8.749495506286621, 0.19200000166893005, 0.12800000607967377, 0.9760000705718994, 0.0, 0.0, 0.0, 0.0, 0.0, 1.693920512389886E9, 2023-09-05 10:28:32.389
44.0, -200.38009643554688, 120.77072143554688, 34.06300735473633, 11.804994583129883, 0.19200000166893005, 0.12800000607967377, 0.9760000705718994, 0.0, 0.0, 0.0, 0.0, 0.0, 1.693920512389886E9, 2023-09-05 10:28:32.389
45.0, -225.16815185546875, 105.5418472290039, 27.750057220458984, 11.685317039489746, 0.19200000166893005, 0.12800000607967377, 0.9760000705718994, 0.0, 0.0, 0.0, 0.0, 0.0, 1.6939205123905904E9, 2023-09-05 10:28:32.390
45.0, -222.75965881347656, 124.16281127929688, 27.63412094116211, 14.048933982849121, 0.19200000166893005, 0.12800000607967377, 0.9760000705718994, 0.0, 0.0, 0.0, 0.0, 0.0, 1.6939205123905904E9, 2023-09-05 10:28:32.390
46.0, -213.33511352539062, 118.41458129882812, 24.563663482666016, 15.58603286743164, 0.19200000166893005, 0.12800000607967377, 0.9760000705718994, 0.0, 0.0, 0.0, 0.0, 0.0, 1.693920512401414E9, 2023-09-05 10:28:32.401
46.0, -212.1458282470703, 121.1185302734375, 32.51469039916992, 9.291781425476074, 0.19200000166893005, 0.12800000607967377, 0.9760000705718994, 0.0, 0.0, 0.0, 0.0, 0.0, 1.693920512401414E9, 2023-09-05 10:28:32.401
47.0, -229.53636169433594, 79.99085235595703, 30.270750045776367, 13.454290390014648, 0.19200000166893005, 0.12800000607967377, 0.9760000705718994, 0.0, 0.0, 0.0, 0.0, 0.0, 1.6939205124163072E9, 2023-09-05 10:28:32.416
47.0, -161.1373291015625, 157.18612670898438, 20.719045639038086, 9.501215934753418, 0.19200000166893005, 0.12800000607967377, 0.9760000705718994, 0.0, 0.0, 0.0, 0.0, 0.0, 1.6939205124163072E9, 2023-09-05 10:28:32.416
48.0, -206.0011749267578, 131.41073608398438, 25.83896827697754, 9.733089447021484, 0.19200000166893005, 0.12800000607967377, 0.9760000705718994, 0.0, 0.0, 0.0, 0.0, 0.0, 1.6939205124320717E9, 2023-09-05 10:28:32.432
48.0, -209.1202392578125, 126.99391174316406, 27.70517921447754, 12.298661231994629, 0.19200000166893005, 0.12800000607967377, 0.9760000705718994, 0.0, 0.0, 0.0, 0.0, 0.0, 1.6939205124320717E9, 2023-09-05 10:28:32.432
49.0, -195.7725372314453, 127.6670913696289, 27.798675537109375, 7.949157238006592, 0.19200000166893005, 0.12800000607967377, 0.9760000705718994, 0.0, 0.0, 0.0, 0.0, 0.0, 1.6939205124326932E9, 2023-09-05 10:28:32.432
49.0, -188.07208251953125, 152.4775848388672, 24.889034271240234, 8.91405200958252, 0.19200000166893005, 0.12800000607967377, 0.9760000705718994, 0.0, 0.0, 0.0, 0.0, 0.0, 1.6939205124326932E9, 2023-09-05 10:28:32.432
50.0, -229.77944946289062, 114.68964385986328, 28.21380615234375, 15.503755569458008, 0.19200000166893005, 0.12800000607967377, 0.9600000381469727, 0.0, 0.0, 0.0, 0.0, 0.0, 1.6939205124463167E9, 2023-09-05 10:28:32.446
50.0, -191.78955078125, 119.81704711914062, 29.92293930053711, 14.033974647521973, 0.19200000166893005, 0.12800000607967377, 0.9600000381469727, 0.0, 0.0, 0.0, 0.0, 0.0, 1.6939205124463167E9, 2023-09-05 10:28:32.446
51.0, -192.54127502441406, 112.61773681640625, 28.535436630249023, 9.433897972106934, 0.19200000166893005, 0.12800000607967377, 0.9600000381469727, 0.0, 0.0, 0.0, 0.0, 0.0, 1.6939205124620292E9, 2023-09-05 10:28:32.462
51.0, -249.9524688720703, 96.8091812133789, 25.89506721496582, 14.998868942260742, 0.19200000166893005, 0.12800000607967377, 0.9600000381469727, 0.0, 0.0, 0.0, 0.0, 0.0, 1.6939205124620292E9, 2023-09-05 10:28:32.462
52.0, -235.4977569580078, 93.92945861816406, 22.77225112915039, 12.257521629333496, 0.19200000166893005, 0.12800000607967377, 0.9600000381469727, 0.0, 0.0, 0.0, 0.0, 0.0, 1.6939205124627693E9, 2023-09-05 10:28:32.462
52.0, -251.16793823242188, 82.00291442871094, 29.275936126708984, 7.971596717834473, 0.19200000166893005, 0.12800000607967377, 0.9600000381469727, 0.0, 0.0, 0.0, 0.0, 0.0, 1.6939205124627693E9, 2023-09-05 10:28:32.462
53.0, -223.68714904785156, 73.15431213378906, 21.22393226623535, 10.002362251281738, 0.19200000166893005, 0.12800000607967377, 0.9600000381469727, 0.0, 0.0, 0.0, 0.0, 0.0, 1.6939205124926238E9, 2023-09-05 10:28:32.492
53.0, -212.35525512695312, 115.42266082763672, 22.301023483276367, 11.950850486755371, 0.19200000166893005, 0.12800000607967377, 0.9600000381469727, 0.0, 0.0, 0.0, 0.0, 0.0, 1.6939205124926238E9, 2023-09-05 10:28:32.492
54.0, -200.4025421142578, 133.1871795654297, 28.838369369506836, 9.706910133361816, 0.19200000166893005, 0.12800000607967377, 0.9600000381469727, 0.0, 0.0, 0.0, 0.0, 0.0, 1.6939205124934182E9, 2023-09-05 10:28:32.493
54.0, -238.9309844970703, 89.16482543945312, 21.152873992919922, 11.169211387634277, 0.19200000166893005, 0.12800000607967377, 0.9600000381469727, 0.0, 0.0, 0.0, 0.0, 0.0, 1.6939205124934182E9, 2023-09-05 10:28:32.493
55.0, -230.99118041992188, 90.82160186767578, 25.03489112854004, 10.720423698425293, 0.19200000166893005, 0.12800000607967377, 0.9600000381469727, 0.0, 0.0, 0.0, 0.0, 0.0, 1.693920512494042E9, 2023-09-05 10:28:32.494
55.0, -224.936279296875, 106.37210083007812, 25.532297134399414, 6.651412010192871, 0.19200000166893005, 0.12800000607967377, 0.9600000381469727, 0.0, 0.0, 0.0, 0.0, 0.0, 1.693920512494042E9, 2023-09-05 10:28:32.494
56.0, -214.58050537109375, 145.9925994873047, 21.661500930786133, 8.667218208312988, 0.19200000166893005, 0.12800000607967377, 0.9600000381469727, 0.0, 0.0, 0.0, 0.0, 0.0, 1.6939205125063677E9, 2023-09-05 10:28:32.506
56.0, -197.15631103515625, 250.9229736328125, 22.12898826599121, 8.839253425598145, 0.19200000166893005, 0.12800000607967377, 0.9600000381469727, 0.0, 0.0, 0.0, 0.0, 0.0, 1.6939205125063677E9, 2023-09-05 10:28:32.506
57.0, -184.68374633789062, 265.1682434082031, 27.678998947143555, 13.03916072845459, 0.19200000166893005, 0.12800000607967377, 0.9600000381469727, 0.0, 0.0, 0.0, 0.0, 0.0, 1.6939205125220146E9, 2023-09-05 10:28:32.522
57.0, -148.88168334960938, 392.12664794921875, 28.662593841552734, 11.26270866394043, 0.19200000166893005, 0.12800000607967377, 0.9600000381469727, 0.0, 0.0, 0.0, 0.0, 0.0, 1.6939205125220146E9, 2023-09-05 10:28:32.522
58.0, -87.52861785888672, 374.9268493652344, 26.29897689819336, 11.531981468200684, 0.19200000166893005, 0.12800000607967377, 0.9600000381469727, 0.0, 0.0, 0.0, 0.0, 0.0, 1.6939205125226421E9, 2023-09-05 10:28:32.522
58.0, -15.05309772491455, 305.061767578125, 30.753196716308594, 9.306740760803223, 0.19200000166893005, 0.12800000607967377, 0.9600000381469727, 0.0, 0.0, 0.0, 0.0, 0.0, 1.6939205125226421E9, 2023-09-05 10:28:32.522
59.0, -64.3973388671875, 549.2117919921875, 33.042015075683594, 10.956036567687988, 0.19200000166893005, 0.12800000607967377, 0.9600000381469727, 0.0, 0.0, 0.0, 0.0, 0.0, 1.6939205125527737E9, 2023-09-05 10:28:32.552
59.0, -213.86244201660156, 745.509765625, 28.11282730102539, 7.78460168838501, 0.19200000166893005, 0.12800000607967377, 0.9600000381469727, 0.0, 0.0, 0.0, 0.0, 0.0, 1.6939205125527737E9, 2023-09-05 10:28:32.552
60.0, -362.2654113769531, 876.1127319335938, 27.458345413208008, 9.90512466430664, 0.19200000166893005, 0.12800000607967377, 0.9600000381469727, 0.0, 0.0, 0.0, 0.0, 0.0, 1.6939205125535142E9, 2023-09-05 10:28:32.553
60.0, -324.78411865234375, 960.9971923828125, 27.94453239440918, 10.615706443786621, 0.19200000166893005, 0.12800000607967377, 0.9600000381469727, 0.0, 0.0, 0.0, 0.0, 0.0, 1.6939205125535142E9, 2023-09-05 10:28:32.553
61.0, -304.3268737792969, 1071.6571044921875, 28.07168960571289, 11.883532524108887, 0.19200000166893005, 0.12800000607967377, 0.9600000381469727, 0.0, 0.0, 0.0, 0.0, 0.0, 1.6939205125541484E9, 2023-09-05 10:28:32.554
61.0, -299.397705078125, 1182.545166015625, 33.55812072753906, 10.35765266418457, 0.19200000166893005, 0.12800000607967377, 0.9600000381469727, 0.0, 0.0, 0.0, 0.0, 0.0, 1.6939205125541484E9, 2023-09-05 10:28:32.554
62.0, -326.0519714355469, 1298.0855712890625, 34.42203903198242, 8.82055377960205, 0.19200000166893005, 0.12800000607967377, 0.9600000381469727, 0.0, 0.0, 0.0, 0.0, 0.0, 1.693920512566268E9, 2023-09-05 10:28:32.566
62.0, -266.26593017578125, 1458.82275390625, 26.317676544189453, 10.978476524353027, 0.19200000166893005, 0.12800000607967377, 0.9600000381469727, 0.0, 0.0, 0.0, 0.0, 0.0, 1.693920512566268E9, 2023-09-05 10:28:32.566
63.0, -285.653564453125, 1512.5875244140625, 26.762723922729492, 15.028787612915039, 0.19200000166893005, 0.12800000607967377, 0.9600000381469727, 0.0, 0.0, 0.0, 0.0, 0.0, 1.69392051258192E9, 2023-09-05 10:28:32.581
63.0, -268.0348815917969, 1562.75830078125, 26.605648040771484, 8.409165382385254, 0.19200000166893005, 0.12800000607967377, 0.9600000381469727, 0.0, 0.0, 0.0, 0.0, 0.0, 1.69392051258192E9, 2023-09-05 10:28:32.581
64.0, -276.77130126953125, 1569.6995849609375, 26.18303871154785, 7.354513168334961, 0.19200000166893005, 0.12800000607967377, 0.9600000381469727, 0.0, 0.0, 0.0, 0.0, 0.0, 1.693920512582668E9, 2023-09-05 10:28:32.582
64.0, -194.06715393066406, 1654.4644775390625, 28.901947021484375, 14.00405502319336, 0.19200000166893005, 0.12800000607967377, 0.9600000381469727, 0.0, 0.0, 0.0, 0.0, 0.0, 1.693920512582668E9, 2023-09-05 10:28:32.582
65.0, -189.31747436523438, 1640.0732421875, 27.61916160583496, 13.386971473693848, 0.19200000166893005, 0.12800000607967377, 0.9600000381469727, 0.0, 0.0, 0.0, 0.0, 0.0, 1.69392051259626E9, 2023-09-05 10:28:32.596
65.0, -223.27577209472656, 1637.676025390625, 26.336376190185547, 9.662031173706055, 0.19200000166893005, 0.12800000607967377, 0.9600000381469727, 0.0, 0.0, 0.0, 0.0, 0.0, 1.69392051259626E9, 2023-09-05 10:28:32.596
66.0, -231.5521697998047, 1631.76318359375, 24.866594314575195, 8.614859580993652, 0.19200000166893005, 0.12800000607967377, 0.9600000381469727, 0.0, 0.0, 0.0, 0.0, 0.0, 1.6939205126119747E9, 2023-09-05 10:28:32.611
66.0, -256.299072265625, 1600.3443603515625, 22.921846389770508, 10.653104782104492, 0.19200000166893005, 0.12800000607967377, 0.9600000381469727, 0.0, 0.0, 0.0, 0.0, 0.0, 1.6939205126119747E9, 2023-09-05 10:28:32.611
67.0, -214.90960693359375, 1636.0416259765625, 25.113428115844727, 10.398792266845703, 0.19200000166893005, 0.12800000607967377, 0.9600000381469727, 0.0, 0.0, 0.0, 0.0, 0.0, 1.6939205126126263E9, 2023-09-05 10:28:32.612
67.0, -198.73828125, 1683.673095703125, 26.818822860717773, 7.126379489898682, 0.19200000166893005, 0.12800000607967377, 0.9600000381469727, 0.0, 0.0, 0.0, 0.0, 0.0, 1.6939205126126263E9, 2023-09-05 10:28:32.612
68.0, -216.00540161132812, 1643.484130859375, 25.573436737060547, 9.98740291595459, 0.19200000166893005, 0.12800000607967377, 0.9600000381469727, 0.0, 0.0, 0.0, 0.0, 0.0, 1.6939205126262634E9, 2023-09-05 10:28:32.626
68.0, -197.14881896972656, 1630.1700439453125, 19.73919105529785, 11.094412803649902, 0.19200000166893005, 0.12800000607967377, 0.9600000381469727, 0.0, 0.0, 0.0, 0.0, 0.0, 1.6939205126262634E9, 2023-09-05 10:28:32.626
69.0, -243.77415466308594, 1627.432373046875, 25.375221252441406, 11.184170722961426, 0.19200000166893005, 0.12800000607967377, 0.9600000381469727, 0.0, 0.0, 0.0, 0.0, 0.0, 1.6939205126419322E9, 2023-09-05 10:28:32.641
69.0, -231.70550537109375, 1639.0299072265625, 31.325401306152344, 12.672651290893555, 0.19200000166893005, 0.12800000607967377, 0.9600000381469727, 0.0, 0.0, 0.0, 0.0, 0.0, 1.6939205126419322E9, 2023-09-05 10:28:32.641
70.0, -207.90478515625, 1654.89453125, 27.15915298461914, 11.404825210571289, 0.19200000166893005, 0.12800000607967377, 0.9600000381469727, 0.0, 0.0, 0.0, 0.0, 0.0, 1.693920512642691E9, 2023-09-05 10:28:32.642
70.0, -253.9840850830078, 1603.930908203125, 15.905794143676758, 6.995482921600342, 0.19200000166893005, 0.12800000607967377, 0.9600000381469727, 0.0, 0.0, 0.0, 0.0, 0.0, 1.693920512642691E9, 2023-09-05 10:28:32.642
71.0, -186.0637664794922, 1675.2918701171875, 26.306455612182617, 11.27392864227295, 0.19200000166893005, 0.12800000607967377, 0.9600000381469727, 0.0, 0.0, 0.0, 0.0, 0.0, 1.693920512656275E9, 2023-09-05 10:28:32.656
71.0, -209.0379638671875, 1654.0306396484375, 25.779130935668945, 8.689657211303711, 0.19200000166893005, 0.12800000607967377, 0.9600000381469727, 0.0, 0.0, 0.0, 0.0, 0.0, 1.693920512656275E9, 2023-09-05 10:28:32.656
72.0, -206.14328002929688, 1654.393310546875, 27.450864791870117, 11.82369327545166, 0.19200000166893005, 0.12800000607967377, 0.9600000381469727, 0.0, 0.0, 0.0, 0.0, 0.0, 1.6939205126719975E9, 2023-09-05 10:28:32.671
72.0, -239.6041717529297, 1655.5826416015625, 27.925832748413086, 13.192497253417969, 0.19200000166893005, 0.12800000607967377, 0.9600000381469727, 0.0, 0.0, 0.0, 0.0, 0.0, 1.6939205126719975E9, 2023-09-05 10:28:32.671
73.0, -197.0927276611328, 1646.3974609375, 25.98856544494629, 10.208057403564453, 0.19200000166893005, 0.12800000607967377, 0.9600000381469727, 0.0, 0.0, 0.0, 0.0, 0.0, 1.6939205126727145E9, 2023-09-05 10:28:32.672
73.0, -180.48008728027344, 1696.8636474609375, 30.577421188354492, 16.068479537963867, 0.19200000166893005, 0.12800000607967377, 0.9600000381469727, 0.0, 0.0, 0.0, 0.0, 0.0, 1.6939205126727145E9, 2023-09-05 10:28:32.672
74.0, -229.28952026367188, 1660.7362060546875, 28.04924964904785, 8.753235816955566, 0.19200000166893005, 0.12800000607967377, 0.9600000381469727, 0.0, 0.0, 0.0, 0.0, 0.0, 1.693920512686312E9, 2023-09-05 10:28:32.686
74.0, -181.3290557861328, 1692.5103759765625, 28.438199996948242, 12.279961585998535, 0.19200000166893005, 0.12800000607967377, 0.9600000381469727, 0.0, 0.0, 0.0, 0.0, 0.0, 1.693920512686312E9, 2023-09-05 10:28:32.686
75.0, -190.44692993164062, 1680.565185546875, 33.08315658569336, 13.420631408691406, 0.19200000166893005, 0.12800000607967377, 0.9600000381469727, 0.0, 0.0, 0.0, 0.0, 0.0, 1.6939205127022548E9, 2023-09-05 10:28:32.702
75.0, -175.27041625976562, 1724.7783203125, 26.732805252075195, 8.637298583984375, 0.19200000166893005, 0.12800000607967377, 0.9600000381469727, 0.0, 0.0, 0.0, 0.0, 0.0, 1.6939205127022548E9, 2023-09-05 10:28:32.702
76.0, -176.37742614746094, 1740.13427734375, 27.020776748657227, 13.760961532592773, 0.19200000166893005, 0.12800000607967377, 0.9600000381469727, 0.0, 0.0, 0.0, 0.0, 0.0, 1.6939205127029016E9, 2023-09-05 10:28:32.702
76.0, -166.87432861328125, 1761.01416015625, 31.882646560668945, 11.614259719848633, 0.19200000166893005, 0.12800000607967377, 0.9600000381469727, 0.0, 0.0, 0.0, 0.0, 0.0, 1.6939205127029016E9, 2023-09-05 10:28:32.702
77.0, -168.86770629882812, 1761.73974609375, 26.833782196044922, 11.950850486755371, 0.19200000166893005, 0.12800000607967377, 0.9600000381469727, 0.0, 0.0, 0.0, 0.0, 0.0, 1.6939205127163544E9, 2023-09-05 10:28:32.716
77.0, -146.7237548828125, 1757.9586181640625, 27.10305404663086, 11.973289489746094, 0.19200000166893005, 0.12800000607967377, 0.9600000381469727, 0.0, 0.0, 0.0, 0.0, 0.0, 1.6939205127163544E9, 2023-09-05 10:28:32.716
78.0, -140.5828399658203, 1807.246826171875, 27.62664031982422, 9.718130111694336, 0.19200000166893005, 0.12800000607967377, 0.9600000381469727, 0.0, 0.0, 0.0, 0.0, 0.0, 1.6939205127319689E9, 2023-09-05 10:28:32.731
