%OpenBCI Raw EXG Data
%Number of channels = 4
%Sample Rate = 200 Hz
%Board = OpenBCI_GUI$BoardGanglionBLE
Sample Index, EXG Channel 0, EXG Channel 1, EXG Channel 2, EXG Channel 3, Accel Channel 0, Accel Channel 1, Accel Channel 2, Other, Other, Other, Other, Other, Timestamp, Other, Timestamp (Formatted)
2.0, -60.86500182887539, -165.20260074269027, -17.816883388906717, -31.920046121813357, 0.17600000835955143, 0.0, 0.0, 0.0, 0.0, 0.0, 0.0, 0.0, 1.6952354554515915E9, 0.0, 2023-09-20 15:44:15.451
2.0, -304.74013803945854, -109.79972279909998, 27.233951477333903, 30.9401923334226, 0.17600000835955143, 0.0, 0.0, 0.0, 0.0, 0.0, 0.0, 0.0, 1.6952354554515915E9, 0.0, 2023-09-20 15:44:15.451
3.0, -451.73690579785034, 2.367356671951711, 2.617929968982935, -1.9858868764713407, 0.17600000835955143, 0.0, 0.0, 0.0, 0.0, 0.0, 0.0, 0.0, 1.6952354554660497E9, 0.0, 2023-09-20 15:44:15.466
3.0, -591.0500490972772, -17.77200458943844, -12.756798748858273, -31.73679102398455, 0.17600000835955143, 0.0, 0.0, 0.0, 0.0, 0.0, 0.0, 0.0, 1.6952354554660497E9, 0.0, 2023-09-20 15:44:15.466
4.0, -401.61663654167205, -166.08521713223308, 11.365555965341628, -1.529619081877172, 0.17600000835955143, 0.0, 0.0, 0.0, 0.0, 0.0, 0.0, 0.0, 1.6952354554664605E9, 0.0, 2023-09-20 15:44:15.466
4.0, -268.3733508703299, -50.552227701060474, 27.103054978884757, 32.746564012020826, 0.17600000835955143, 0.0, 0.0, 0.0, 0.0, 0.0, 0.0, 0.0, 1.6952354554664605E9, 0.0, 2023-09-20 15:44:15.466
5.0, -488.93021085718647, 67.14990370441228, 3.5603847578167915, -0.643262792378664, 0.17600000835955143, 0.0, 0.0, 0.0, 0.0, 0.0, 0.0, 0.0, 1.6952354554802942E9, 0.0, 2023-09-20 15:44:15.480
5.0, -551.904516261071, -176.07822981383651, -18.17217388469726, -29.79952284693718, 0.17600000835955143, 0.0, 0.0, 0.0, 0.0, 0.0, 0.0, 0.0, 1.6952354554802942E9, 0.0, 2023-09-20 15:44:15.480
6.0, -366.81686745397747, -221.55541327502578, 8.908441694453359, 6.376529424451292, 0.17600000835955143, 0.0, 0.0, 0.0, 0.0, 0.0, 0.0, 0.0, 1.6952354554959579E9, 0.0, 2023-09-20 15:44:15.495
6.0, -352.53605947317556, -46.97314344346523, 23.30331662390381, 29.182439354248345, 0.17600000835955143, 0.0, 0.0, 0.0, 0.0, 0.0, 0.0, 0.0, 1.6952354554959579E9, 0.0, 2023-09-20 15:44:15.495
7.0, -489.659491348546, -45.48092336114496, 4.342023848555982, 0.18699499778449535, 0.17600000835955143, 0.0, 0.0, 0.0, 0.0, 0.0, 0.0, 0.0, 1.6952354554965003E9, 0.0, 2023-09-20 15:44:15.496
7.0, -548.8340583974496, -116.03039612527937, -17.970219287090003, -35.52904957905412, 0.17600000835955143, 0.0, 0.0, 0.0, 0.0, 0.0, 0.0, 0.0, 1.6952354554965003E9, 0.0, 2023-09-20 15:44:15.496
8.0, -325.16934154741466, -261.5312039013952, 8.702747196890414, 3.9268949534744024, 0.17600000835955143, 0.0, 0.0, 0.0, 0.0, 0.0, 0.0, 0.0, 1.695235455510033E9, 0.0, 2023-09-20 15:44:15.510
8.0, -243.66009196313098, -505.90561675606295, 25.573435897007585, 35.70108497701585, 0.17600000835955143, 0.0, 0.0, 0.0, 0.0, 0.0, 0.0, 0.0, 1.695235455510033E9, 0.0, 2023-09-20 15:44:15.510
9.0, -484.4759900099598, -531.2845778553747, 3.0442785639315844, -5.482693335041404, 0.17600000835955143, 0.0, 0.0, 0.0, 0.0, 0.0, 0.0, 0.0, 1.6952354555258152E9, 0.0, 2023-09-20 15:44:15.525
9.0, -551.1527963699773, -534.0595836224966, -18.680800278671086, -32.09208151977509, 0.17600000835955143, 0.0, 0.0, 0.0, 0.0, 0.0, 0.0, 0.0, 1.6952354555258152E9, 0.0, 2023-09-20 15:44:15.525
10.0, -423.4576522829011, -741.2014224682935, 6.514905722811818, 2.449634470976889, 0.17600000835955143, 0.0, 0.9760000463575125, 0.0, 0.0, 0.0, 0.0, 0.0, 1.6952354555265293E9, 0.0, 2023-09-20 15:44:15.526
10.0, -288.81190412817523, -890.9788058437407, 26.399953787215054, 28.703732159920037, 0.17600000835955143, 0.0, 0.9760000463575125, 0.0, 0.0, 0.0, 0.0, 0.0, 1.6952354555265293E9, 0.0, 2023-09-20 15:44:15.526
11.0, -452.3764286902733, -801.3708029054105, -0.3702500956133008, -2.0270257759839296, 0.17600000835955143, -0.01600000075995922, 0.9760000463575125, 0.0, 0.0, 0.0, 0.0, 0.0, 1.6952354555400012E9, 0.0, 2023-09-20 15:44:15.540
11.0, -530.5908264135942, -734.1404913519509, -15.976852610707283, -29.530250050127506, 0.17600000835955143, -0.01600000075995922, 0.9760000463575125, 0.0, 0.0, 0.0, 0.0, 0.0, 1.6952354555400012E9, 0.0, 2023-09-20 15:44:15.540
12.0, -349.55348925851285, -736.4480096246116, 12.150934956036508, 1.892389377579093, 0.1600000075995922, -0.01600000075995922, 0.9760000463575125, 0.0, 0.0, 0.0, 0.0, 0.0, 1.6952354555557463E9, 0.0, 2023-09-20 15:44:15.555
12.0, -280.8646167223342, -501.7655475051142, 29.178699454292655, 30.95515193324536, 0.1600000075995922, -0.01600000075995922, 0.9760000463575125, 0.0, 0.0, 0.0, 0.0, 0.0, 1.6952354555557463E9, 0.0, 2023-09-20 15:44:15.555
13.0, -448.21018013963476, -473.0917345448397, 3.418268559500575, -5.463993835262954, 0.1600000075995922, -0.01600000075995922, 0.9760000463575125, 0.0, 0.0, 0.0, 0.0, 0.0, 1.6952354555564227E9, 0.0, 2023-09-20 15:44:15.556
13.0, -558.8981291782111, -690.2415456720628, -16.672474002465606, -29.601308149285614, 0.1600000075995922, -0.01600000075995922, 0.9760000463575125, 0.0, 0.0, 0.0, 0.0, 0.0, 1.6952354555564227E9, 0.0, 2023-09-20 15:44:15.556
14.0, -366.27084206044674, -802.9733500364237, 11.047664469107985, 5.336837236769497, 0.1600000075995922, -0.01600000075995922, 0.9760000463575125, 0.0, 0.0, 0.0, 0.0, 0.0, 1.695235455570002E9, 0.0, 2023-09-20 15:44:15.570
14.0, -269.1400303612463, -580.090272277128, 24.18967291340232, 26.9384993808344, 0.1600000075995922, -0.01600000075995922, 0.9760000463575125, 0.0, 0.0, 0.0, 0.0, 0.0, 1.695235455570002E9, 0.0, 2023-09-20 15:44:15.570
15.0, -460.8996606892906, -351.4066096865572, 5.183501338586211, -1.5819776812568307, 0.1600000075995922, -0.01600000075995922, 0.9760000463575125, 0.0, 0.0, 0.0, 0.0, 0.0, 1.695235455585784E9, 0.0, 2023-09-20 15:44:15.585
15.0, -592.8489409759641, -564.1844777655788, -15.490665616467595, -28.6064947610721, 0.1600000075995922, -0.01600000075995922, 0.9760000463575125, 0.0, 0.0, 0.0, 0.0, 0.0, 1.695235455585784E9, 0.0, 2023-09-20 15:44:15.585
16.0, -396.5116731021553, -645.0298951077275, 7.8687495067715645, 2.535652169957757, 0.1600000075995922, -0.01600000075995922, 0.9760000463575125, 0.0, 0.0, 0.0, 0.0, 0.0, 1.6952354555864267E9, 0.0, 2023-09-20 15:44:15.586
16.0, -280.1241165311076, -595.7754126912914, 28.804709458723664, 32.21175831835717, 0.1600000075995922, -0.01600000075995922, 0.9760000463575125, 0.0, 0.0, 0.0, 0.0, 0.0, 1.6952354555864267E9, 0.0, 2023-09-20 15:44:15.586
17.0, -439.88142293831334, -548.3796605528332, 2.0345055758953094, -2.131742974743247, 0.1600000075995922, -0.01600000075995922, 0.9760000463575125, 0.0, 0.0, 0.0, 0.0, 0.0, 1.6952354556001189E9, 0.0, 2023-09-20 15:44:15.600
17.0, -559.2758590737358, -657.0574133652262, -17.446633293293417, -28.819669058546424, 0.1600000075995922, -0.01600000075995922, 0.9760000463575125, 0.0, 0.0, 0.0, 0.0, 0.0, 1.6952354556001189E9, 0.0, 2023-09-20 15:44:15.600
18.0, -422.687232892029, -671.1156972986646, 4.9703270411118865, 2.7151673678308725, 0.1600000075995922, -0.01600000075995922, 0.9760000463575125, 0.0, 0.0, 0.0, 0.0, 0.0, 1.6952354556158805E9, 0.0, 2023-09-20 15:44:15.615
18.0, -284.2941049817018, -477.4000992937945, 24.795536706224084, 33.34120810497552, 0.1600000075995922, -0.01600000075995922, 0.9760000463575125, 0.0, 0.0, 0.0, 0.0, 0.0, 1.6952354556158805E9, 0.0, 2023-09-20 15:44:15.615
19.0, -450.7420924096368, -474.71485112560913, 2.5094728702679276, -0.9499345887452364, 0.1600000075995922, -0.01600000075995922, 0.9760000463575125, 0.0, 0.0, 0.0, 0.0, 0.0, 1.6952354556165943E9, 0.0, 2023-09-20 15:44:15.616
19.0, -558.1800683867186, -602.0509648169391, -17.547610592097044, -32.93729890976101, 0.1600000075995922, -0.01600000075995922, 0.9760000463575125, 0.0, 0.0, 0.0, 0.0, 0.0, 1.6952354556165943E9, 0.0, 2023-09-20 15:44:15.616
20.0, -369.41609792318195, -782.0261703846045, 12.610942650586367, 3.508026158437133, 0.1600000075995922, -0.01600000075995922, 0.9760000463575125, 0.0, 0.0, 0.0, 0.0, 0.0, 1.6952354556300063E9, 0.0, 2023-09-20 15:44:15.630
20.0, -268.7398610659875, -975.6800600402057, 21.27629084791988, 28.91690645739436, 0.1600000075995922, -0.01600000075995922, 0.9760000463575125, 0.0, 0.0, 0.0, 0.0, 0.0, 1.6952354556300063E9, 0.0, 2023-09-20 15:44:15.630
21.0, -486.85456638177857, -923.538374857977, 2.9246017653495073, 0.4749672943726182, 0.1600000075995922, -0.01600000075995922, 0.9760000463575125, 0.0, 0.0, 0.0, 0.0, 0.0, 1.6952354556457489E9, 0.0, 2023-09-20 15:44:15.645
21.0, -604.4575904384255, -1074.8360275654122, -15.423347417265177, -33.191612106747925, 0.1600000075995922, -0.01600000075995922, 0.9760000463575125, 0.0, 0.0, 0.0, 0.0, 0.0, 1.6952354556457489E9, 0.0, 2023-09-20 15:44:15.645
22.0, -426.9469789415598, -1058.9938113531098, 7.457360511645675, 0.5572450933977962, 0.1600000075995922, -0.01600000075995922, 0.9760000463575125, 0.0, 0.0, 0.0, 0.0, 0.0, 1.6952354556464128E9, 0.0, 2023-09-20 15:44:15.646
22.0, -305.7461711275391, -954.2279938943684, 28.400800263509154, 29.85188144631684, 0.1600000075995922, -0.01600000075995922, 0.9760000463575125, 0.0, 0.0, 0.0, 0.0, 0.0, 1.6952354556464128E9, 0.0, 2023-09-20 15:44:15.646
23.0, -460.2414382970892, -1076.8742730412632, 4.674874944612384, -1.1780684860423207, 0.1600000075995922, -0.01600000075995922, 0.9760000463575125, 0.0, 0.0, 0.0, 0.0, 0.0, 1.6952354556599984E9, 0.0, 2023-09-20 15:44:15.659
23.0, -576.4307801704854, -1281.9703866112977, -13.729172737337649, -40.420838721096516, 0.1600000075995922, -0.01600000075995922, 0.9760000463575125, 0.0, 0.0, 0.0, 0.0, 0.0, 1.6952354556599984E9, 0.0, 2023-09-20 15:44:15.659
24.0, -439.93939138762653, -1151.5750347562134, 10.329603677615523, -0.7704193908721209, 0.1600000075995922, -0.01600000075995922, 0.9760000463575125, 0.0, 0.0, 0.0, 0.0, 0.0, 1.695235455675778E9, 0.0, 2023-09-20 15:44:15.675
24.0, -297.0097648310475, -1024.642830260098, 25.162046901881695, 28.786009958945215, 0.1600000075995922, -0.01600000075995922, 0.9760000463575125, 0.0, 0.0, 0.0, 0.0, 0.0, 1.695235455675778E9, 0.0, 2023-09-20 15:44:15.675
25.0, -477.164485596586, -998.8001215662807, 3.3210311606526375, -2.9133820654824376, 0.1600000075995922, -0.01600000075995922, 0.9760000463575125, 0.0, 0.0, 0.0, 0.0, 0.0, 1.6952354556766336E9, 0.0, 2023-09-20 15:44:15.676
25.0, -589.9205993106589, -1175.6113717714325, -15.169034220278263, -32.810142311267555, 0.1600000075995922, -0.01600000075995922, 0.9760000463575125, 0.0, 0.0, 0.0, 0.0, 0.0, 1.6952354556766336E9, 0.0, 2023-09-20 15:44:15.676
26.0, -406.42988778464496, -1082.8431533705443, 7.3040246134623885, -3.1602154625579715, 0.1600000075995922, -0.01600000075995922, 0.9760000463575125, 0.0, 0.0, 0.0, 0.0, 0.0, 1.6952354556901195E9, 0.0, 2023-09-20 15:44:15.690
26.0, -317.37352008977905, -976.955365925096, 25.865148093551397, 27.514443974010646, 0.1600000075995922, -0.01600000075995922, 0.9760000463575125, 0.0, 0.0, 0.0, 0.0, 0.0, 1.6952354556901195E9, 0.0, 2023-09-20 15:44:15.690
27.0, -505.42316966177896, -915.8117415495217, 6.533605222590268, -2.8834628658369184, 0.1600000075995922, -0.01600000075995922, 0.9760000463575125, 0.0, 0.0, 0.0, 0.0, 0.0, 1.6952354557059815E9, 0.0, 2023-09-20 15:44:15.705
27.0, -618.9048239672557, -1134.0536034638062, -17.33817619457841, -35.32335508149117, 0.1600000075995922, -0.01600000075995922, 0.9760000463575125, 0.0, 0.0, 0.0, 0.0, 0.0, 1.6952354557059815E9, 0.0, 2023-09-20 15:44:15.705
28.0, -423.80546297878027, -1142.004630769603, 9.054297792725265, -2.943301265127957, 0.1600000075995922, -0.01600000075995922, 0.9760000463575125, 0.0, 0.0, 0.0, 0.0, 0.0, 1.6952354557064905E9, 0.0, 2023-09-20 15:44:15.706
28.0, -301.66968017583713, -975.6090019410476, 23.28087722416967, 23.39681412279606, 0.1600000075995922, -0.01600000075995922, 0.9760000463575125, 0.0, 0.0, 0.0, 0.0, 0.0, 1.6952354557064905E9, 0.0, 2023-09-20 15:44:15.706
29.0, -466.25145752588287, -1034.1272165477276, -0.8900961894541979, -3.4519276591017842, 0.1600000075995922, -0.01600000075995922, 0.9760000463575125, 0.0, 0.0, 0.0, 0.0, 0.0, 1.6952354557199984E9, 0.0, 2023-09-20 15:44:15.719
29.0, -562.3089179378003, -1101.90168354474, -16.95670639909804, -32.436152315698564, 0.1600000075995922, -0.01600000075995922, 0.9760000463575125, 0.0, 0.0, 0.0, 0.0, 0.0, 1.6952354557199984E9, 0.0, 2023-09-20 15:44:15.719
30.0, -421.36704820767045, -1280.30239123106, 10.88310887105763, -2.060684875585139, 0.1600000075995922, -0.01600000075995922, 0.9760000463575125, 0.0, 0.0, 0.0, 0.0, 0.0, 1.695235455735746E9, 0.0, 2023-09-20 15:44:15.735
30.0, -265.658183502499, -1146.3877935176715, 33.67031930107623, 33.625440501607955, 0.1600000075995922, -0.01600000075995922, 0.9760000463575125, 0.0, 0.0, 0.0, 0.0, 0.0, 1.695235455735746E9, 0.0, 2023-09-20 15:44:15.735
31.0, -481.33821394713596, -939.1000985736027, 3.137776062823832, 0.3104116963222623, 0.1600000075995922, -0.01600000075995922, 0.9760000463575125, 0.0, 0.0, 0.0, 0.0, 0.0, 1.695235455736644E9, 0.0, 2023-09-20 15:44:15.736
31.0, -593.0172364739701, -1142.0719489688054, -16.818330100737512, -33.240230806171894, 0.1600000075995922, -0.01600000075995922, 0.9760000463575125, 0.0, 0.0, 0.0, 0.0, 0.0, 1.695235455736644E9, 0.0, 2023-09-20 15:44:15.736
32.0, -378.8481256114319, -1224.7798364888877, 5.2919584373012185, -2.6291496688500047, 0.1600000075995922, -0.01600000075995922, 0.9760000463575125, 0.0, 0.0, 0.0, 0.0, 0.0, 1.695235455750288E9, 0.0, 2023-09-20 15:44:15.750
32.0, -304.73265823954716, -1008.288247753866, 21.76621774211526, 25.857668293640018, 0.1600000075995922, -0.01600000075995922, 0.9760000463575125, 0.0, 0.0, 0.0, 0.0, 0.0, 1.695235455750288E9, 0.0, 2023-09-20 15:44:15.750
33.0, -467.8334352071397, -893.4508797144517, 3.459407459013164, -3.5117660583928227, 0.1600000075995922, -0.01600000075995922, 0.9760000463575125, 0.0, 0.0, 0.0, 0.0, 0.0, 1.6952354557657516E9, 0.0, 2023-09-20 15:44:15.765
33.0, -555.5696182176471, -671.7440004912205, -15.935713711194694, -32.93729890976101, 0.1600000075995922, -0.01600000075995922, 0.9760000463575125, 0.0, 0.0, 0.0, 0.0, 0.0, 1.6952354557657516E9, 0.0, 2023-09-20 15:44:15.765
34.0, -414.051803894341, -613.992465375457, 9.925694482401013, -5.422854935750365, 0.1600000075995922, -0.01600000075995922, 0.9760000463575125, 0.0, 0.0, 0.0, 0.0, 0.0, 1.6952354557665308E9, 0.0, 2023-09-20 15:44:15.766
34.0, -314.14224652806297, -542.1789064262994, 29.305856052786112, 32.55208921432495, 0.1600000075995922, -0.01600000075995922, 0.9760000463575125, 0.0, 0.0, 0.0, 0.0, 0.0, 1.6952354557665308E9, 0.0, 2023-09-20 15:44:15.766
35.0, -489.79412774695083, -496.9672558619641, 4.775852243416011, -0.7068410916253924, 0.1600000075995922, -0.01600000075995922, 0.9760000463575125, 0.0, 0.0, 0.0, 0.0, 0.0, 1.6952354557801564E9, 0.0, 2023-09-20 15:44:15.780
35.0, -610.3404530687258, -616.7824307424016, -17.068903397768736, -34.92318578623235, 0.1600000075995922, -0.01600000075995922, 0.9760000463575125, 0.0, 0.0, 0.0, 0.0, 0.0, 1.6952354557801564E9, 0.0, 2023-09-20 15:44:15.780
36.0, -447.16487810201943, -717.9205452441238, 9.547964586876333, -2.849803766235709, 0.1600000075995922, -0.01600000075995922, 0.9760000463575125, 0.0, 0.0, 0.0, 0.0, 0.0, 1.6952354557957215E9, 0.0, 2023-09-20 15:44:15.795
36.0, -305.2001457340084, -822.0449698604643, 27.83233547024429, 30.012697144411504, 0.1600000075995922, -0.01600000075995922, 0.9760000463575125, 0.0, 0.0, 0.0, 0.0, 0.0, 1.6952354557957215E9, 0.0, 2023-09-20 15:44:15.795
37.0, -511.4369287905283, -1060.4000137364492, 3.21631396189332, 0.2580530969426036, 0.1600000075995922, -0.01600000075995922, 0.9760000463575125, 0.0, 0.0, 0.0, 0.0, 0.0, 1.69523545579645E9, 0.0, 2023-09-20 15:44:15.796
37.0, -584.202292278409, -1210.194226661697, -16.12270870897919, -34.362200792878866, 0.1600000075995922, -0.01600000075995922, 0.9760000463575125, 0.0, 0.0, 0.0, 0.0, 0.0, 1.69523545579645E9, 0.0, 2023-09-20 15:44:15.796
38.0, -429.3891336126253, -1130.4072010070086, 7.917368206195533, -1.327664484269917, 0.1600000075995922, -0.01600000075995922, 0.9760000463575125, 0.0, 0.0, 0.0, 0.0, 0.0, 1.6952354558099828E9, 0.0, 2023-09-20 15:44:15.809
38.0, -308.06490910006687, -953.5660316022113, 27.061916079372168, 23.494051521643996, 0.1600000075995922, -0.01600000075995922, 0.9760000463575125, 0.0, 0.0, 0.0, 0.0, 0.0, 1.6952354558099828E9, 0.0, 2023-09-20 15:44:15.809
39.0, -475.7919423128478, -998.9123185649514, 1.9372681770473719, 1.170588686130941, 0.1600000075995922, -0.01600000075995922, 0.9760000463575125, 0.0, 0.0, 0.0, 0.0, 0.0, 1.6952354558259811E9, 0.0, 2023-09-20 15:44:15.825
39.0, -607.587886701338, -1149.2076780842617, -13.052250845357776, -36.26954977028072, 0.1600000075995922, -0.01600000075995922, 0.9760000463575125, 0.0, 0.0, 0.0, 0.0, 0.0, 1.6952354558259811E9, 0.0, 2023-09-20 15:44:15.825
40.0, -420.8322425140068, -1170.0351809374988, 7.045971516519785, 0.18699499778449535, 0.1600000075995922, -0.01600000075995922, 0.9760000463575125, 0.0, 0.0, 0.0, 0.0, 0.0, 1.6952354558269792E9, 0.0, 2023-09-20 15:44:15.826
40.0, -277.2144743655808, -1159.9075318574905, 31.02994993235916, 28.243724465370178, 0.1600000075995922, -0.01600000075995922, 0.9760000463575125, 0.0, 0.0, 0.0, 0.0, 0.0, 1.6952354558269792E9, 0.0, 2023-09-20 15:44:15.826
41.0, -514.9187756492756, -968.4059546263888, 3.0031396644189954, -5.64350903313607, 0.1600000075995922, -0.01600000075995922, 0.9760000463575125, 0.0, 0.0, 0.0, 0.0, 0.0, 1.6952354558400197E9, 0.0, 2023-09-20 15:44:15.840
41.0, -634.9041159776971, -1110.4361352436244, -17.929080387577415, -35.962877973914146, 0.1600000075995922, -0.01600000075995922, 0.9760000463575125, 0.0, 0.0, 0.0, 0.0, 0.0, 1.6952354558400197E9, 0.0, 2023-09-20 15:44:15.840
42.0, -459.74964145291597, -1057.097682075575, 12.981192746199667, 0.11967679858207703, 0.1600000075995922, -0.01600000075995922, 0.9760000463575125, 0.0, 0.0, 0.0, 0.0, 0.0, 1.695235455855954E9, 0.0, 2023-09-20 15:44:15.855
42.0, -310.234051074367, -1035.148209235631, 29.43301265127957, 30.25205074157566, 0.1600000075995922, -0.01600000075995922, 0.9760000463575125, 0.0, 0.0, 0.0, 0.0, 0.0, 1.695235455855954E9, 0.0, 2023-09-20 15:44:15.855
43.0, -473.5480023394339, -864.6536500556394, 5.0900038396939635, 1.0247325878590345, 0.1600000075995922, -0.01600000075995922, 0.9760000463575125, 0.0, 0.0, 0.0, 0.0, 0.0, 1.695235455856396E9, 0.0, 2023-09-20 15:44:15.856
43.0, -614.4655627198517, -691.9132809522562, -11.866702559404075, -36.74451706465334, 0.1600000075995922, -0.01600000075995922, 0.9760000463575125, 0.0, 0.0, 0.0, 0.0, 0.0, 1.695235455856396E9, 0.0, 2023-09-20 15:44:15.856
44.0, -416.4976984653622, -769.5386444325559, 6.185794526711106, 1.5483185816556215, 0.1600000075995922, -0.01600000075995922, 0.9760000463575125, 0.0, 0.0, 0.0, 0.0, 0.0, 1.6952354558701077E9, 0.0, 2023-09-20 15:44:15.870
44.0, -296.51609803689644, -1005.5057621868327, 24.627241208218038, 27.443385874852538, 0.1600000075995922, -0.01600000075995922, 0.9760000463575125, 0.0, 0.0, 0.0, 0.0, 0.0, 1.6952354558701077E9, 0.0, 2023-09-20 15:44:15.870
45.0, -472.4297722526826, -947.1109642786905, 3.0442785639315844, 1.20798768568784, 0.1600000075995922, -0.01600000075995922, 0.9760000463575125, 0.0, 0.0, 0.0, 0.0, 0.0, 1.695235455885732E9, 0.0, 2023-09-20 15:44:15.885
45.0, -595.8595604402944, -1151.6610524551943, -15.243832219392061, -29.638707148842514, 0.1600000075995922, -0.01600000075995922, 0.9760000463575125, 0.0, 0.0, 0.0, 0.0, 0.0, 1.695235455885732E9, 0.0, 2023-09-20 15:44:15.885
46.0, -409.5714037474245, -1303.6655462542549, 9.847156583331525, -1.5931973811239004, 0.1600000075995922, -0.01600000075995922, 0.9760000463575125, 0.0, 0.0, 0.0, 0.0, 0.0, 1.69523545588643E9, 0.0, 2023-09-20 15:44:15.886
46.0, -303.094582058955, -1453.143737633247, 26.856221581809223, 27.888433969579637, 0.1600000075995922, -0.01600000075995922, 0.9760000463575125, 0.0, 0.0, 0.0, 0.0, 0.0, 1.69523545588643E9, 0.0, 2023-09-20 15:44:15.886
47.0, -529.2575520793907, -1500.479651372414, 3.4706271588802338, 4.977806841023266, 0.1600000075995922, -0.01600000075995922, 0.9760000463575125, 0.0, 0.0, 0.0, 0.0, 0.0, 1.695235455900076E9, 0.0, 2023-09-20 15:44:15.900
47.0, -624.6754895988852, -1673.57344102161, -20.247818360105157, -31.471258127130568, 0.1600000075995922, -0.01600000075995922, 0.9760000463575125, 0.0, 0.0, 0.0, 0.0, 0.0, 1.695235455900076E9, 0.0, 2023-09-20 15:44:15.900
48.0, -441.1772982729599, -1704.6632293532602, 4.858130042441189, -2.1504424745216966, 0.1600000075995922, -0.01600000075995922, 0.9760000463575125, 0.0, 0.0, 0.0, 0.0, 0.0, 1.6952354559157476E9, 0.0, 2023-09-20 15:44:15.915
48.0, -320.2495031557046, -1870.5147027382627, 27.33118887618184, 30.693358936347067, 0.1600000075995922, -0.01600000075995922, 0.9760000463575125, 0.0, 0.0, 0.0, 0.0, 0.0, 1.6952354559157476E9, 0.0, 2023-09-20 15:44:15.915
49.0, -488.7282562595792, -2023.8281615218148, 4.41682184766978, 2.326217772439122, 0.1600000075995922, -0.01600000075995922, 0.9760000463575125, 0.0, 0.0, 0.0, 0.0, 0.0, 1.6952354559166038E9, 0.0, 2023-09-20 15:44:15.916
49.0, -607.6589448004961, -2108.06940802373, -17.042724098078907, -32.54834931436926, 0.1600000075995922, -0.01600000075995922, 0.9760000463575125, 0.0, 0.0, 0.0, 0.0, 0.0, 1.6952354559166038E9, 0.0, 2023-09-20 15:44:15.916
50.0, -427.62764073349535, -2240.9555332493037, 4.82447094283998, -0.927495189011097, 0.1600000075995922, -0.01600000075995922, 0.9760000463575125, 0.0, 0.0, 0.0, 0.0, 0.0, 1.6952354559301603E9, 0.0, 2023-09-20 15:44:15.930
50.0, -264.02010732190683, -2404.0020816675387, 27.046956479549408, 31.201985330320895, 0.1600000075995922, -0.01600000075995922, 0.9760000463575125, 0.0, 0.0, 0.0, 0.0, 0.0, 1.6952354559301603E9, 0.0, 2023-09-20 15:44:15.930
51.0, -480.5004763570614, -2423.980627230834, 2.535652169957757, 2.5057329703122377, 0.1600000075995922, -0.01600000075995922, 0.9760000463575125, 0.0, 0.0, 0.0, 0.0, 0.0, 1.695235455962093E9, 0.0, 2023-09-20 15:44:15.962
51.0, -584.9914111690596, -2596.255378789734, -15.853435912169516, -30.899053433910012, 0.1600000075995922, -0.01600000075995922, 0.9760000463575125, 0.0, 0.0, 0.0, 0.0, 0.0, 1.695235455962093E9, 0.0, 2023-09-20 15:44:15.962
52.0, -419.55693662911654, -2580.218687779736, 8.706487096846104, 1.3912427835166454, 0.17600000835955143, -0.01600000075995922, 0.9760000463575125, 0.0, 0.0, 0.0, 0.0, 0.0, 1.695235455962916E9, 0.0, 2023-09-20 15:44:15.962
52.0, -287.9292877386324, -2499.14513654029, 24.60854170843959, 27.914613269269466, 0.17600000835955143, -0.01600000075995922, 0.9760000463575125, 0.0, 0.0, 0.0, 0.0, 0.0, 1.695235455962916E9, 0.0, 2023-09-20 15:44:15.962
53.0, -468.29718280164525, -2496.2093150750734, 4.0428318521007895, 6.167095026932657, 0.17600000835955143, -0.01600000075995922, 0.9760000463575125, 0.0, 0.0, 0.0, 0.0, 0.0, 1.6952354559635649E9, 0.0, 2023-09-20 15:44:15.963
53.0, -567.0024923821911, -2665.402389070485, -18.841615976765752, -34.369680592790246, 0.17600000835955143, -0.01600000075995922, 0.9760000463575125, 0.0, 0.0, 0.0, 0.0, 0.0, 1.6952354559635649E9, 0.0, 2023-09-20 15:44:15.963
54.0, -376.6266250377521, -2754.0866367197596, 7.034751816652715, -3.2761523611843586, 0.17600000835955143, -0.01600000075995922, 0.9760000463575125, 0.0, 0.0, 0.0, 0.0, 0.0, 1.6952354559642677E9, 0.0, 2023-09-20 15:44:15.964
54.0, -262.68122313776985, -2922.4550627749413, 26.407433587126434, 31.3478414285928, 0.17600000835955143, -0.01600000075995922, 0.9760000463575125, 0.0, 0.0, 0.0, 0.0, 0.0, 1.6952354559642677E9, 0.0, 2023-09-20 15:44:15.964
55.0, -448.24383923923597, -2901.4069058243185, 2.0831242753192782, 4.338283948600292, 0.17600000835955143, -0.01600000075995922, 0.9760000463575125, 0.0, 0.0, 0.0, 0.0, 0.0, 1.6952354559751823E9, 0.0, 2023-09-20 15:44:15.975
55.0, -569.0407378580421, -3040.497525076382, -16.803370500914752, -28.415759863331914, 0.17600000835955143, -0.01600000075995922, 0.9760000463575125, 0.0, 0.0, 0.0, 0.0, 0.0, 1.6952354559751823E9, 0.0, 2023-09-20 15:44:15.975
56.0, -356.48352387640625, -3075.3683522632346, 4.84317044261843, -1.4286417830735445, 0.17600000835955143, -0.01600000075995922, 0.9760000463575125, 0.0, 0.0, 0.0, 0.0, 0.0, 1.6952354559902627E9, 0.0, 2023-09-20 15:44:15.990
56.0, -235.18547866353765, -3097.575878200121, 22.18508653715253, 30.263270441442728, 0.17600000835955143, -0.01600000075995922, 0.9760000463575125, 0.0, 0.0, 0.0, 0.0, 0.0, 1.6952354559902627E9, 0.0, 2023-09-20 15:44:15.990
57.0, -458.6071020164527, -3020.9528079079464, 3.9194151535630226, 0.602123892866075, 0.17600000835955143, -0.01600000075995922, 0.9760000463575125, 0.0, 0.0, 0.0, 0.0, 0.0, 1.6952354560058575E9, 0.0, 2023-09-20 15:44:16.005
57.0, -610.0861398717389, -2878.59351609461, -12.973712946288288, -27.170373178087175, 0.17600000835955143, -0.01600000075995922, 0.9760000463575125, 0.0, 0.0, 0.0, 0.0, 0.0, 1.6952354560058575E9, 0.0, 2023-09-20 15:44:16.005
58.0, -396.8258246984333, -2660.1216503330506, 6.956213917583227, -0.6582223922014236, 0.17600000835955143, -0.01600000075995922, 0.9760000463575125, 0.0, 0.0, 0.0, 0.0, 0.0, 1.6952354560064344E9, 0.0, 2023-09-20 15:44:16.006
58.0, -248.42098460672423, -2625.77814903995, 23.049003426916897, 28.9767448566854, 0.17600000835955143, -0.01600000075995922, 0.9760000463575125, 0.0, 0.0, 0.0, 0.0, 0.0, 1.6952354560064344E9, 0.0, 2023-09-20 15:44:16.006
59.0, -457.3504956313409, -2850.506867427379, 7.307764513418078, -0.4637475945055485, 0.17600000835955143, -0.01600000075995922, 0.9760000463575125, 0.0, 0.0, 0.0, 0.0, 0.0, 1.6952354560203936E9, 0.0, 2023-09-20 15:44:16.020
59.0, -601.7798220701516, -2623.414532267954, -17.517691392451525, -32.97095800936222, 0.17600000835955143, -0.01600000075995922, 0.9760000463575125, 0.0, 0.0, 0.0, 0.0, 0.0, 1.6952354560203936E9, 0.0, 2023-09-20 15:44:16.020
60.0, -389.30862578749657, -2743.5475986446254, 4.659915344789624, -0.6993612917140126, 0.17600000835955143, -0.01600000075995922, 0.9600000455975533, 0.0, 0.0, 0.0, 0.0, 0.0, 1.695235456035833E9, 0.0, 2023-09-20 15:44:16.035
60.0, -242.9869099711068, -2982.2037044670433, 22.775990730151534, 31.684432424604893, 0.17600000835955143, -0.01600000075995922, 0.9600000455975533, 0.0, 0.0, 0.0, 0.0, 0.0, 1.695235456035833E9, 0.0, 2023-09-20 15:44:16.035
61.0, -440.7116807284765, -2933.072638749145, 3.8408772544935346, 5.026425540447235, 0.17600000835955143, -0.01600000075995922, 0.9600000455975533, 0.0, 0.0, 0.0, 0.0, 0.0, 1.6952354560364392E9, 0.0, 2023-09-20 15:44:16.036
61.0, -590.4965439038351, -3060.5583484387025, -14.637968426570296, -29.702285448089242, 0.17600000835955143, -0.01600000075995922, 0.9600000455975533, 0.0, 0.0, 0.0, 0.0, 0.0, 1.6952354560364392E9, 0.0, 2023-09-20 15:44:16.036
62.0, -386.91134991589934, -3152.395331750624, 9.25999229028821, -3.010619464330375, 0.17600000835955143, -0.01600000075995922, 0.9600000455975533, 0.0, 0.0, 0.0, 0.0, 0.0, 1.6952354560502343E9, 0.0, 2023-09-20 15:44:16.050
62.0, -259.6893031732179, -2957.92801385466, 27.914613269269466, 27.78745667077601, 0.17600000835955143, -0.01600000075995922, 0.9600000455975533, 0.0, 0.0, 0.0, 0.0, 0.0, 1.6952354560502343E9, 0.0, 2023-09-20 15:44:16.050
63.0, -436.20510128187016, -2856.924535751343, 4.151288950815797, -2.696467868052423, 0.17600000835955143, -0.01600000075995922, 0.9600000455975533, 0.0, 0.0, 0.0, 0.0, 0.0, 1.6952354560659378E9, 0.0, 2023-09-20 15:44:16.065
63.0, -564.9343277066946, -2616.4994572498836, -17.68598689045757, -26.98337818030268, 0.17600000835955143, -0.01600000075995922, 0.9600000455975533, 0.0, 0.0, 0.0, 0.0, 0.0, 1.6952354560659378E9, 0.0, 2023-09-20 15:44:16.065
64.0, -381.68670967780054, -2736.7409807252698, 5.766925731673837, -3.4332281593233347, 0.17600000835955143, -0.01600000075995922, 0.9600000455975533, 0.0, 0.0, 0.0, 0.0, 0.0, 1.6952354560663595E9, 0.0, 2023-09-20 15:44:16.066
64.0, -268.42944936966524, -2544.05759510817, 25.40514039900154, 25.061069603078067, 0.17600000835955143, -0.01600000075995922, 0.9600000455975533, 0.0, 0.0, 0.0, 0.0, 0.0, 1.6952354560663595E9, 0.0, 2023-09-20 15:44:16.066
65.0, -458.4163671187125, -2461.7386571834795, 2.5992304692044854, 1.4136821832507849, 0.17600000835955143, -0.01600000075995922, 0.9600000455975533, 0.0, 0.0, 0.0, 0.0, 0.0, 1.6952354560803216E9, 0.0, 2023-09-20 15:44:16.080
65.0, -603.9489640444517, -2689.352708386723, -16.264824907295406, -30.263270441442728, 0.17600000835955143, -0.01600000075995922, 0.9600000455975533, 0.0, 0.0, 0.0, 0.0, 0.0, 1.6952354560803216E9, 0.0, 2023-09-20 15:44:16.080
66.0, -411.4637931250036, -2627.577040918637, 7.292804913595319, -5.2096806382760406, 0.17600000835955143, -0.01600000075995922, 0.9600000455975533, 0.0, 0.0, 0.0, 0.0, 0.0, 1.6952354560958207E9, 0.0, 2023-09-20 15:44:16.095
66.0, -256.89933780627325, -2610.328622322995, 25.599615196697414, 30.513843738473952, 0.17600000835955143, -0.01600000075995922, 0.9600000455975533, 0.0, 0.0, 0.0, 0.0, 0.0, 1.6952354560958207E9, 0.0, 2023-09-20 15:44:16.095
67.0, -458.95865261228755, -2423.2176876398735, 6.5822239220142365, 3.949334353208542, 0.17600000835955143, -0.01600000075995922, 0.9600000455975533, 0.0, 0.0, 0.0, 0.0, 0.0, 1.6952354560963562E9, 0.0, 2023-09-20 15:44:16.096
67.0, -607.5168286021799, -2581.9203422595747, -12.741839149035513, -32.357614416629076, 0.17600000835955143, -0.01600000075995922, 0.9600000455975533, 0.0, 0.0, 0.0, 0.0, 0.0, 1.6952354560963562E9, 0.0, 2023-09-20 15:44:16.096
68.0, -402.7797454278916, -2646.467275594827, 8.773805296048522, -0.6245632926002145, 0.17600000835955143, -0.01600000075995922, 0.9600000455975533, 0.0, 0.0, 0.0, 0.0, 0.0, 1.6952354561101649E9, 0.0, 2023-09-20 15:44:16.110
68.0, -263.5040011280216, -2500.8505309200846, 28.337221964262426, 29.590088449418545, 0.17600000835955143, -0.01600000075995922, 0.9600000455975533, 0.0, 0.0, 0.0, 0.0, 0.0, 1.6952354561101649E9, 0.0, 2023-09-20 15:44:16.110
69.0, -466.59552832180634, -2369.105075180996, 4.914228541776538, 4.959107341244817, 0.17600000835955143, -0.01600000075995922, 0.9600000455975533, 0.0, 0.0, 0.0, 0.0, 0.0, 1.6952354561259253E9, 0.0, 2023-09-20 15:44:16.125
69.0, -608.4218843914568, -2516.1691611385904, -15.546764115802944, -28.651373560540378, 0.17600000835955143, -0.01600000075995922, 0.9600000455975533, 0.0, 0.0, 0.0, 0.0, 0.0, 1.6952354561259253E9, 0.0, 2023-09-20 15:44:16.125
70.0, -413.4833391010761, -2720.5846129166894, 6.395228924229741, -3.343470560386777, 0.17600000835955143, -0.01600000075995922, 0.9600000455975533, 0.0, 0.0, 0.0, 0.0, 0.0, 1.6952354561264837E9, 0.0, 2023-09-20 15:44:16.126
70.0, -262.01552094565704, -2606.809376464691, 23.3070565238595, 24.567402808927, 0.17600000835955143, -0.01600000075995922, 0.9600000455975533, 0.0, 0.0, 0.0, 0.0, 0.0, 1.6952354561264837E9, 0.0, 2023-09-20 15:44:16.126
71.0, -445.2369596748613, -2492.4058368201368, 3.137776062823832, 2.3561369720846415, 0.17600000835955143, -0.01600000075995922, 0.9600000455975533, 0.0, 0.0, 0.0, 0.0, 0.0, 1.6952354561402805E9, 0.0, 2023-09-20 15:44:16.140
71.0, -613.9157974263653, -2701.5522620421834, -16.07409000955522, -31.33288182877004, 0.17600000835955143, -0.01600000075995922, 0.9600000455975533, 0.0, 0.0, 0.0, 0.0, 0.0, 1.6952354561402805E9, 0.0, 2023-09-20 15:44:16.140
72.0, -406.7440393809229, -2601.192046731245, 5.931481329724193, 0.12341669853776693, 0.1600000075995922, -0.01600000075995922, 0.9600000455975533, 0.0, 0.0, 0.0, 0.0, 0.0, 1.695235456155854E9, 0.0, 2023-09-20 15:44:16.155
72.0, -287.2635855465196, -2585.4695073175244, 24.90399380493909, 27.607941472902894, 0.1600000075995922, -0.01600000075995922, 0.9600000455975533, 0.0, 0.0, 0.0, 0.0, 0.0, 1.695235456155854E9, 0.0, 2023-09-20 15:44:16.155
73.0, -444.61239638226107, -2416.7027819170617, 4.3644632482901216, 4.641215845011175, 0.1600000075995922, -0.01600000075995922, 0.9600000455975533, 0.0, 0.0, 0.0, 0.0, 0.0, 1.6952354561564195E9, 0.0, 2023-09-20 15:44:16.156
73.0, -609.6223922772333, -2625.9427046380006, -18.269411283545196, -24.20837241318077, 0.1600000075995922, -0.01600000075995922, 0.9600000455975533, 0.0, 0.0, 0.0, 0.0, 0.0, 1.6952354561564195E9, 0.0, 2023-09-20 15:44:16.156
74.0, -436.34160763025284, -2570.794139891397, 6.787918419577181, 0.011219699867069721, 0.1600000075995922, -0.01600000075995922, 0.9600000455975533, 0.0, 0.0, 0.0, 0.0, 0.0, 1.695235456170066E9, 0.0, 2023-09-20 15:44:16.170
74.0, -268.878237364348, -2511.9804731882177, 23.179899925366044, 28.842108458280563, 0.1600000075995922, -0.01600000075995922, 0.9600000455975533, 0.0, 0.0, 0.0, 0.0, 0.0, 1.695235456170066E9, 0.0, 2023-09-20 15:44:16.170
75.0, -374.2611383157782, -2515.0434512519278, 3.4818468587473035, 3.3621700601652265, 0.1600000075995922, -0.01600000075995922, 0.9600000455975533, 0.0, 0.0, 0.0, 0.0, 0.0, 1.6952354561858976E9, 0.0, 2023-09-20 15:44:16.185
75.0, -618.695389569737, -2481.982735643629, -15.438307017087936, -26.658006884157658, 0.1600000075995922, -0.01600000075995922, 0.9600000455975533, 0.0, 0.0, 0.0, 0.0, 0.0, 1.6952354561858976E9, 0.0, 2023-09-20 15:44:16.185
76.0, -396.36207710392773, -2309.4630206376314, 4.162508650682867, -0.8377375900745392, 0.1600000075995922, -0.01600000075995922, 0.9600000455975533, 0.0, 0.0, 0.0, 0.0, 0.0, 1.6952354561863532E9, 0.0, 2023-09-20 15:44:16.186
76.0, -162.85955342045054, -2149.690754630603, 28.266163865104318, 27.929572869092226, 0.1600000075995922, -0.01600000075995922, 0.9600000455975533, 0.0, 0.0, 0.0, 0.0, 0.0, 1.6952354561863532E9, 0.0, 2023-09-20 15:44:16.186
77.0, 3.1228164630010724, -2363.401727748569, 6.963693717494607, 2.5655713696032763, 0.1600000075995922, -0.01600000075995922, 0.9600000455975533, 0.0, 0.0, 0.0, 0.0, 0.0, 1.6952354562000468E9, 0.0, 2023-09-20 15:44:16.200
77.0, -124.6714349729009, -2174.3254756387323, -15.169034220278263, -30.061315843835473, 0.1600000075995922, -0.01600000075995922, 0.9600000455975533, 0.0, 0.0, 0.0, 0.0, 0.0, 1.6952354562000468E9, 0.0, 2023-09-20 15:44:16.200
78.0, 94.52784133004025, -2199.536141240038, 6.724340120330453, -2.4683339707553387, 0.1600000075995922, -0.01600000075995922, 0.9600000455975533, 0.0, 0.0, 0.0, 0.0, 0.0, 1.695235456215896E9, 0.0, 2023-09-20 15:44:16.215
78.0, 273.4315655604005, -2107.9198120255023, 24.567402808927, 30.95141203328967, 0.1600000075995922, -0.01600000075995922, 0.9600000455975533, 0.0, 0.0, 0.0, 0.0, 0.0, 1.695235456215896E9, 0.0, 2023-09-20 15:44:16.215
79.0, 50.896298496983945, -1937.230778047815, 6.406448624096811, -1.0808310871943831, 0.1600000075995922, -0.01600000075995922, 0.9600000455975533, 0.0, 0.0, 0.0, 0.0, 0.0, 1.6952354562164772E9, 0.0, 2023-09-20 15:44:16.216
79.0, -113.7397074024193, -2074.5935635203496, -13.871288935653865, -25.666933395899832, 0.1600000075995922, -0.01600000075995922, 0.9600000455975533, 0.0, 0.0, 0.0, 0.0, 0.0, 1.6952354562164772E9, 0.0, 2023-09-20 15:44:16.216
80.0, 105.8447785959579, -2193.757995808497, 4.140069250948727, -1.4249018831178546, 0.1600000075995922, -0.01600000075995922, 0.9600000455975533, 0.0, 0.0, 0.0, 0.0, 0.0, 1.6952354562301152E9, 0.0, 2023-09-20 15:44:16.230
80.0, 251.32501692231745, -2083.9059144100174, 26.710365483537316, 25.061069603078067, 0.1600000075995922, -0.01600000075995922, 0.9600000455975533, 0.0, 0.0, 0.0, 0.0, 0.0, 1.6952354562301152E9, 0.0, 2023-09-20 15:44:16.230
81.0, 11.051404369063675, -1940.993117403239, 4.0428318521007895, 7.401262012310326, 0.1600000075995922, -0.01600000075995922, 0.9600000455975533, 0.0, 0.0, 0.0, 0.0, 0.0, 1.695235456245902E9, 0.0, 2023-09-20 15:44:16.245
81.0, -124.42086167586967, -2174.3254756387323, -13.755352037027478, -28.501777562312782, 0.1600000075995922, -0.01600000075995922, 0.9600000455975533, 0.0, 0.0, 0.0, 0.0, 0.0, 1.695235456245902E9, 0.0, 2023-09-20 15:44:16.245
82.0, 72.2754365936853, -2175.428746125661, 5.755706031806767, -3.3172912606969476, 0.1600000075995922, -0.01600000075995922, 0.9600000455975533, 0.0, 0.0, 0.0, 0.0, 0.0, 1.69523545624636E9, 0.0, 2023-09-20 15:44:16.246
82.0, 188.0197303723544, -2065.688861725852, 27.76501727104187, 31.78540972340852, 0.1600000075995922, -0.01600000075995922, 0.9600000455975533, 0.0, 0.0, 0.0, 0.0, 0.0, 1.69523545624636E9, 0.0, 2023-09-20 15:44:16.246
83.0, 17.570049991831183, -1965.1005125176162, 9.25251249037683, 1.5520584816113114, 0.1600000075995922, -0.01600000075995922, 0.9600000455975533, 0.0, 0.0, 0.0, 0.0, 0.0, 1.695235456260072E9, 0.0, 2023-09-20 15:44:16.260
83.0, -109.69687555031851, -1816.3553415299393, -17.850542488507926, -25.483678298071027, 0.1600000075995922, -0.01600000075995922, 0.9600000455975533, 0.0, 0.0, 0.0, 0.0, 0.0, 1.695235456260072E9, 0.0, 2023-09-20 15:44:16.260
84.0, 34.95497493585572, -1589.7809825143777, 2.2663793731480837, -0.7105809915810823, 0.1600000075995922, -0.01600000075995922, 0.9600000455975533, 0.0, 0.0, 0.0, 0.0, 0.0, 1.6952354562758176E9, 0.0, 2023-09-20 15:44:16.275
84.0, 176.91970730386674, -1519.9607902416028, 21.478245445527136, 30.659699836745858, 0.1600000075995922, -0.01600000075995922, 0.9600000455975533, 0.0, 0.0, 0.0, 0.0, 0.0, 1.6952354562758176E9, 0.0, 2023-09-20 15:44:16.275
85.0, 31.893866822123528, -1572.7719175159, 6.470026923343539, -0.845217389985919, 0.1600000075995922, -0.01600000075995922, 0.9600000455975533, 0.0, 0.0, 0.0, 0.0, 0.0, 1.6952354562763548E9, 0.0, 2023-09-20 15:44:16.276
85.0, -149.3884337800555, -1630.6281698304228, -15.591642915271223, -27.925832969136536, 0.1600000075995922, -0.01600000075995922, 0.9600000455975533, 0.0, 0.0, 0.0, 0.0, 0.0, 1.6952354562763548E9, 0.0, 2023-09-20 15:44:16.276
86.0, 83.67839155858383, -1644.8921482614242, 3.2350134616717696, -0.4188687950372696, 0.1600000075995922, -0.01600000075995922, 0.9600000455975533, 0.0, 0.0, 0.0, 0.0, 0.0, 1.6952354562901645E9, 0.0, 2023-09-20 15:44:16.290
86.0, 257.21161945257336, -1608.484222192783, 26.14564059022814, 22.49923813343048, 0.1600000075995922, -0.01600000075995922, 0.9600000455975533, 0.0, 0.0, 0.0, 0.0, 0.0, 1.6952354562901645E9, 0.0, 2023-09-20 15:44:16.290
87.0, 474.48297732835636, -1461.9138030293398, 4.659915344789624, 0.6769218919798732, 0.1600000075995922, -0.01600000075995922, 0.9600000455975533, 0.0, 0.0, 0.0, 0.0, 0.0, 1.6952354563058248E9, 0.0, 2023-09-20 15:44:16.305
87.0, 331.9273407673463, -1607.433310305234, -12.693220449611545, -31.79662942327559, 0.1600000075995922, -0.01600000075995922, 0.9600000455975533, 0.0, 0.0, 0.0, 0.0, 0.0, 1.6952354563058248E9, 0.0, 2023-09-20 15:44:16.305
88.0, 97.60577899357304, -1741.9537718114443, 5.449034235440195, -2.864763366058469, 0.1600000075995922, -0.01600000075995922, 0.9600000455975533, 0.0, 0.0, 0.0, 0.0, 0.0, 1.6952354563063226E9, 0.0, 2023-09-20 15:44:16.306
88.0, 170.57683697901666, -1913.3926557302475, 22.58151593245566, 24.9376529045403, 0.1600000075995922, -0.01600000075995922, 0.9600000455975533, 0.0, 0.0, 0.0, 0.0, 0.0, 1.6952354563063226E9, 0.0, 2023-09-20 15:44:16.306
89.0, 8.4858329994604, -2093.4426592970267, 9.764878784306347, 5.707087332382798, 0.1600000075995922, -0.01600000075995922, 0.9600000455975533, 0.0, 0.0, 0.0, 0.0, 0.0, 1.695235456320182E9, 0.0, 2023-09-20 15:44:16.320
89.0, -88.1737513053231, -2175.1706930287182, -14.851142724044621, -25.670673295855522, 0.1600000075995922, -0.01600000075995922, 0.9600000455975533, 0.0, 0.0, 0.0, 0.0, 0.0, 1.695235456320182E9, 0.0, 2023-09-20 15:44:16.320
90.0, 46.698260796722025, -2255.496264277026, 5.205940738320351, -1.9522277768701315, 0.1600000075995922, -0.01600000075995922, 0.9760000463575125, 0.0, 0.0, 0.0, 0.0, 0.0, 1.695235456335774E9, 0.0, 2023-09-20 15:44:16.335
90.0, 271.3559210849926, -2076.841243393719, 27.37980757560581, 23.617468220181763, 0.1600000075995922, -0.01600000075995922, 0.9760000463575125, 0.0, 0.0, 0.0, 0.0, 0.0, 1.695235456335774E9, 0.0, 2023-09-20 15:44:16.335
91.0, 473.1590527440421, -2090.9032672271132, 10.419361276552081, -0.6245632926002145, 0.1600000075995922, -0.01600000075995922, 0.9760000463575125, 0.0, 0.0, 0.0, 0.0, 0.0, 1.695235456336487E9, 0.0, 2023-09-20 15:44:16.336
91.0, 352.32849502563477, -2188.0733478758484, -16.377021905966103, -30.061315843835473, 0.1600000075995922, -0.01600000075995922, 0.9760000463575125, 0.0, 0.0, 0.0, 0.0, 0.0, 1.695235456336487E9, 0.0, 2023-09-20 15:44:16.336
92.0, 494.02582454681396, -2161.6846137885004, 3.8034782549366355, -0.18699499778449535, 0.17600000835955143, -0.01600000075995922, 0.9760000463575125, 0.0, 0.0, 0.0, 0.0, 0.0, 1.6952354563500576E9, 0.0, 2023-09-20 15:44:16.350
92.0, 689.4000681820326, -2096.7973495572805, 23.157460525631905, 26.785163482651114, 0.17600000835955143, -0.01600000075995922, 0.9760000463575125, 0.0, 0.0, 0.0, 0.0, 0.0, 1.6952354563500576E9, 0.0, 2023-09-20 15:44:16.350
93.0, 508.4188295262866, -2306.476710523013, 3.6015236573293805, 5.793105031363666, 0.17600000835955143, -0.01600000075995922, 0.9760000463575125, 0.0, 0.0, 0.0, 0.0, 0.0, 1.6952354563658736E9, 0.0, 2023-09-20 15:44:16.365
93.0, 276.4571446245536, -2138.014786968939, -16.765971501357853, -32.9410388097167, 0.17600000835955143, -0.01600000075995922, 0.9760000463575125, 0.0, 0.0, 0.0, 0.0, 0.0, 1.6952354563658736E9, 0.0, 2023-09-20 15:44:16.365
94.0, 488.2701185150072, -2084.5229979027063, 6.384009224362671, -2.7488264674320817, 0.17600000835955143, -0.01600000075995922, 0.9760000463575125, 0.0, 0.0, 0.0, 0.0, 0.0, 1.695235456366387E9, 0.0, 2023-09-20 15:44:16.366
94.0, 689.6656010788865, -2144.8700235877186, 27.039476679638028, 29.02536355610937, 0.17600000835955143, -0.01600000075995922, 0.9760000463575125, 0.0, 0.0, 0.0, 0.0, 0.0, 1.695235456366387E9, 0.0, 2023-09-20 15:44:16.366
95.0, 516.590510929469, -1993.8603431768715, 4.899268941953778, 8.601769898086786, 0.17600000835955143, -0.01600000075995922, 0.9760000463575125, 0.0, 0.0, 0.0, 0.0, 0.0, 1.6952354563800662E9, 0.0, 2023-09-20 15:44:16.380
95.0, 365.8444934654981, -2226.19040822424, -15.70010001398623, -26.082062290981412, 0.17600000835955143, -0.01600000075995922, 0.9760000463575125, 0.0, 0.0, 0.0, 0.0, 0.0, 1.6952354563800662E9, 0.0, 2023-09-20 15:44:16.380
96.0, 546.0927117299289, -2134.611478009261, 4.401862247847021, -3.900715653784573, 0.17600000835955143, -0.01600000075995922, 0.9760000463575125, 0.0, 0.0, 0.0, 0.0, 0.0, 1.695235456395772E9, 0.0, 2023-09-20 15:44:16.395
96.0, 701.2181520420127, -2370.7319316617213, 24.874074605293572, 29.477891450747848, 0.17600000835955143, -0.01600000075995922, 0.9760000463575125, 0.0, 0.0, 0.0, 0.0, 0.0, 1.695235456395772E9, 0.0, 2023-09-20 15:44:16.395
97.0, 547.8186755594797, -2475.082620225381, 3.339730660431087, 4.274705649353564, 0.17600000835955143, -0.01600000075995922, 0.9760000463575125, 0.0, 0.0, 0.0, 0.0, 0.0, 1.6952354563963895E9, 0.0, 2023-09-20 15:44:16.396
97.0, 381.2491413829848, -2647.8360789786093, -16.04043090995401, -28.277383564971387, 0.17600000835955143, -0.01600000075995922, 0.9760000463575125, 0.0, 0.0, 0.0, 0.0, 0.0, 1.6952354563963895E9, 0.0, 2023-09-20 15:44:16.396
98.0, 573.0835697101429, -2805.835632406641, 5.684647932648659, -2.9246017653495073, 0.17600000835955143, -0.01600000075995922, 0.9760000463575125, 0.0, 0.0, 0.0, 0.0, 0.0, 1.6952354564100213E9, 0.0, 2023-09-20 15:44:16.410
98.0, 784.890933750663, -2693.683512535412, 24.50008460972458, 27.74631777126342, 0.17600000835955143, -0.01600000075995922, 0.9760000463575125, 0.0, 0.0, 0.0, 0.0, 0.0, 1.6952354564100213E9, 0.0, 2023-09-20 15:44:16.410
99.0, 999.3050080602989, -2508.008699435275, 6.365309724584222, 0.3814697954803705, 0.17600000835955143, -0.01600000075995922, 0.9760000463575125, 0.0, 0.0, 0.0, 0.0, 0.0, 1.695235456425942E9, 0.0, 2023-09-20 15:44:16.425
99.0, 791.5853546713479, -2684.2103459476493, -14.136821832507849, -25.951165792532265, 0.17600000835955143, -0.01600000075995922, 0.9760000463575125, 0.0, 0.0, 0.0, 0.0, 0.0, 1.695235456425942E9, 0.0, 2023-09-20 15:44:16.425
100.0, 1015.6502408166416, -2505.2411734680645, 4.573897645808756, -0.39268949534744024, 0.17600000835955143, -0.01600000075995922, 0.9760000463575125, 0.0, 0.0, 0.0, 0.0, 0.0, 1.6952354564264376E9, 0.0, 2023-09-20 15:44:16.426
100.0, 1218.141514067538, -2485.288807204459, 21.878414740785956, 28.374620963819325, 0.17600000835955143, -0.01600000075995922, 0.9760000463575125, 0.0, 0.0, 0.0, 0.0, 0.0, 1.6952354564264376E9, 0.0, 2023-09-20 15:44:16.426
0.0, -119.94420142890885, 237.36584033770487, 5.241469787899405, 11.322547115851194, 0.17600000835955143, -0.01600000075995922, 0.9760000463575125, 0.0, 0.0, 0.0, 0.0, 0.0, 1.6952354564572232E9, 0.0, 2023-09-20 15:44:16.457
1.0, -334.91926073189825, 86.78624842176214, -13.981615984346718, -21.19214309891686, 0.17600000835955143, -0.01600000075995922, 0.9760000463575125, 0.0, 0.0, 0.0, 0.0, 0.0, 1.6952354564579391E9, 0.0, 2023-09-20 15:44:16.457
1.0, -95.79753736499697, 80.93704489106312, 12.713789899367839, 3.977383602876216, 0.17600000835955143, -0.01600000075995922, 0.9760000463575125, 0.0, 0.0, 0.0, 0.0, 0.0, 1.6952354564579391E9, 0.0, 2023-09-20 15:44:16.457
2.0, 89.68093098746613, 44.82831081887707, 26.054013041313738, 35.392543230671436, 0.1600000075995922, -0.01600000075995922, 0.9760000463575125, 0.0, 0.0, 0.0, 0.0, 0.0, 1.695235456458782E9, 0.0, 2023-09-20 15:44:16.458
2.0, -100.56029995856807, 271.79909922974184, 6.146525577176362, 7.750942658167332, 0.1600000075995922, -0.01600000075995922, 0.9760000463575125, 0.0, 0.0, 0.0, 0.0, 0.0, 1.695235456458782E9, 0.0, 2023-09-20 15:44:16.458
3.0, -238.95342786889523, 489.4893259005621, -13.577706789132208, -20.32074640924111, 0.1600000075995922, -0.01600000075995922, 0.9760000463575125, 0.0, 0.0, 0.0, 0.0, 0.0, 1.6952354564593678E9, 0.0, 2023-09-20 15:44:16.459
3.0, -147.48669465258718, 678.7432232582942, 4.658045394811779, 2.971350514795631, 0.1600000075995922, -0.01600000075995922, 0.9760000463575125, 0.0, 0.0, 0.0, 0.0, 0.0, 1.6952354564593678E9, 0.0, 2023-09-20 15:44:16.459
4.0, 74.81482866359875, 629.9225692367181, 22.426310084294528, 32.42306266585365, 0.1600000075995922, -0.01600000075995922, 0.9760000463575125, 0.0, 0.0, 0.0, 0.0, 0.0, 1.6952354564700112E9, 0.0, 2023-09-20 15:44:16.470
4.0, -88.68237769929692, 810.2156663006172, 9.224463240709156, 17.12687184708193, 0.1600000075995922, -0.01600000075995922, 0.9760000463575125, 0.0, 0.0, 0.0, 0.0, 0.0, 1.6952354564700112E9, 0.0, 2023-09-20 15:44:16.470
5.0, -319.95592100918293, 986.3406448638998, -9.983662931714207, -19.92057711398229, 0.1600000075995922, -0.01600000075995922, 0.9760000463575125, 0.0, 0.0, 0.0, 0.0, 0.0, 1.6952354564850817E9, 0.0, 2023-09-20 15:44:16.485
5.0, -134.0267947120592, 998.8132112161256, 1.325794534292072, 3.3303809105418622, 0.1600000075995922, -0.01600000075995922, 0.9760000463575125, 0.0, 0.0, 0.0, 0.0, 0.0, 1.6952354564850817E9, 0.0, 2023-09-20 15:44:16.485
6.0, 62.17022691341117, 1064.0408063433133, 23.57071947073564, 29.21048860391602, 0.1600000075995922, -0.01600000075995922, 0.9760000463575125, 0.0, 0.0, 0.0, 0.0, 0.0, 1.6952354565008602E9, 0.0, 2023-09-20 15:44:16.500
6.0, -153.6893187290989, 1217.8254925212823, 4.983416690956801, 14.66601767623797, 0.1600000075995922, -0.01600000075995922, 0.9760000463575125, 0.0, 0.0, 0.0, 0.0, 0.0, 1.6952354565008602E9, 0.0, 2023-09-20 15:44:16.500
7.0, -336.9649860076606, 1072.1040306477807, -13.158837994094938, -17.695336640346795, 0.1600000075995922, -0.01600000075995922, 0.9760000463575125, 0.0, 0.0, 0.0, 0.0, 0.0, 1.6952354565014348E9, 0.0, 2023-09-20 15:44:16.501
7.0, -96.0443707620725, 1000.4924262962304, 5.607979983557016, 1.8680800278671086, 0.1600000075995922, -0.01600000075995922, 0.9760000463575125, 0.0, 0.0, 0.0, 0.0, 0.0, 1.6952354565014348E9, 0.0, 2023-09-20 15:44:16.501
8.0, 44.78717191936448, 1102.3747808891349, 20.571319706272334, 30.904663283843547, 0.1600000075995922, -0.01600000075995922, 0.9760000463575125, 0.0, 0.0, 0.0, 0.0, 0.0, 1.6952354565150445E9, 0.0, 2023-09-20 15:44:16.515
8.0, -140.31543648755178, 1125.7678551119752, 9.504955737385899, 9.385278938803822, 0.1600000075995922, -0.01600000075995922, 0.9760000463575125, 0.0, 0.0, 0.0, 0.0, 0.0, 1.6952354565150445E9, 0.0, 2023-09-20 15:44:16.515
9.0, -277.3547206139192, 1078.192587775644, -12.519315101671964, -22.033620588947088, 0.1600000075995922, -0.01600000075995922, 0.9760000463575125, 0.0, 0.0, 0.0, 0.0, 0.0, 1.6952354565308406E9, 0.0, 2023-09-20 15:44:16.530
9.0, -88.35887635312974, 958.164238597732, 6.262462475802749, 5.136752589140087, 0.1600000075995922, -0.01600000075995922, 0.9760000463575125, 0.0, 0.0, 0.0, 0.0, 0.0, 1.6952354565308406E9, 0.0, 2023-09-20 15:44:16.530
10.0, 68.94318573316559, 806.1765743484721, 17.796313939150423, 36.83240471361205, 0.1600000075995922, -0.01600000075995922, 0.9760000463575125, 0.0, 0.0, 0.0, 0.0, 0.0, 1.695235456531478E9, 0.0, 2023-09-20 15:44:16.531
10.0, -125.12396286753938, 685.4077249793336, 5.278868787456304, 9.516175437252969, 0.1600000075995922, -0.01600000075995922, 0.9760000463575125, 0.0, 0.0, 0.0, 0.0, 0.0, 1.695235456531478E9, 0.0, 2023-09-20 15:44:16.531
11.0, -344.70283901598305, 599.5134426970035, -10.761562122497708, -18.985602125059813, 0.1600000075995922, -0.01600000075995922, 0.9760000463575125, 0.0, 0.0, 0.0, 0.0, 0.0, 1.6952354565451303E9, 0.0, 2023-09-20 15:44:16.545
11.0, -146.42830296512693, 561.8376905433834, 6.329780675005168, 3.6071335072629154, 0.1600000075995922, -0.01600000075995922, 0.9760000463575125, 0.0, 0.0, 0.0, 0.0, 0.0, 1.6952354565451303E9, 0.0, 2023-09-20 15:44:16.545
12.0, 32.11265096953139, 562.9334812304005, 20.619938405696303, 32.01541357068345, 0.17600000835955143, -0.01600000075995922, 0.9760000463575125, 0.0, 0.0, 0.0, 0.0, 0.0, 1.695235456560774E9, 0.0, 2023-09-20 15:44:16.560
12.0, -122.6668485966511, 663.0319035444409, 6.045548278372735, 13.996575584169477, 0.17600000835955143, -0.01600000075995922, 0.9760000463575125, 0.0, 0.0, 0.0, 0.0, 0.0, 1.695235456560774E9, 0.0, 2023-09-20 15:44:16.560
13.0, -322.06522458419204, 472.7158745992929, -14.740815675351769, -16.139538258779794, 0.17600000835955143, -0.01600000075995922, 0.9760000463575125, 0.0, 0.0, 0.0, 0.0, 0.0, 1.695235456561457E9, 0.0, 2023-09-20 15:44:16.561
13.0, -162.8202844709158, 541.9339429792017, 1.3781531336717308, 4.684224694501609, 0.17600000835955143, -0.01600000075995922, 0.9760000463575125, 0.0, 0.0, 0.0, 0.0, 0.0, 1.695235456561457E9, 0.0, 2023-09-20 15:44:16.561
14.0, -402.6675484292209, 682.7598758107051, 20.986448601353914, 31.94435547152534, 0.17600000835955143, -0.01600000075995922, 0.9760000463575125, 0.0, 0.0, 0.0, 0.0, 0.0, 1.6952354565752532E9, 0.0, 2023-09-20 15:44:16.575
14.0, -638.5243391348049, 712.6678557563573, 2.2645094231702387, 6.939384367782623, 0.17600000835955143, -0.01600000075995922, 0.9760000463575125, 0.0, 0.0, 0.0, 0.0, 0.0, 1.6952354565752532E9, 0.0, 2023-09-20 15:44:16.575
15.0, -796.4995832131244, 618.6766900699586, -11.07571371877566, -16.109619059134275, 0.17600000835955143, -0.01600000075995922, 0.9760000463575125, 0.0, 0.0, 0.0, 0.0, 0.0, 1.6952354565907617E9, 0.0, 2023-09-20 15:44:16.590
15.0, -620.4250932992436, 449.1058861790225, 11.232789516914636, 3.307941510807723, 0.17600000835955143, -0.01600000075995922, 0.9760000463575125, 0.0, 0.0, 0.0, 0.0, 0.0, 1.6952354565907617E9, 0.0, 2023-09-20 15:44:16.590
16.0, -448.2232697894797, 561.7628925442696, 26.858091531787068, 32.565178864169866, 0.17600000835955143, -0.01600000075995922, 0.9760000463575125, 0.0, 0.0, 0.0, 0.0, 0.0, 1.6952354565916443E9, 0.0, 2023-09-20 15:44:16.591
16.0, -630.2591602327302, 782.4843081291765, 6.075467478018254, 7.332073863130063, 0.17600000835955143, -0.01600000075995922, 0.9760000463575125, 0.0, 0.0, 0.0, 0.0, 0.0, 1.6952354565916443E9, 0.0, 2023-09-20 15:44:16.591
17.0, -817.0765127693303, 919.6993675534613, -14.834313174244016, -19.86821851460263, 0.17600000835955143, -0.01600000075995922, 0.9760000463575125, 0.0, 0.0, 0.0, 0.0, 0.0, 1.695235456605154E9, 0.0, 2023-09-20 15:44:16.605
17.0, -602.6044700103812, 948.070248617325, 3.9138053036294878, 1.610026930924505, 0.17600000835955143, -0.01600000075995922, 0.9760000463575125, 0.0, 0.0, 0.0, 0.0, 0.0, 1.695235456605154E9, 0.0, 2023-09-20 15:44:16.605
18.0, -480.6070635057986, 1157.4261082368903, 26.39434393728152, 33.19722195668146, 0.17600000835955143, -0.01600000075995922, 0.9760000463575125, 0.0, 0.0, 0.0, 0.0, 0.0, 1.6952354566207724E9, 0.0, 2023-09-20 15:44:16.620
18.0, -551.8671172615141, 1236.8989822953008, 4.942277791444212, 11.573120412882417, 0.17600000835955143, -0.01600000075995922, 0.9760000463575125, 0.0, 0.0, 0.0, 0.0, 0.0, 1.6952354566207724E9, 0.0, 2023-09-20 15:44:16.620
19.0, -385.6323041310534, 1094.5770894815214, -11.07571371877566, -17.12687184708193, 0.17600000835955143, -0.01600000075995922, 0.9760000463575125, 0.0, 0.0, 0.0, 0.0, 0.0, 1.6952354566214356E9, 0.0, 2023-09-20 15:44:16.621
19.0, -145.3287723781541, 1022.3858006368391, 3.053628313820809, 7.85191995697096, 0.17600000835955143, -0.01600000075995922, 0.9760000463575125, 0.0, 0.0, 0.0, 0.0, 0.0, 1.6952354566214356E9, 0.0, 2023-09-20 15:44:16.621
20.0, 41.75411305529997, 799.025885633193, 23.047133476939052, 32.43428236572072, 0.17600000835955143, -0.01600000075995922, 0.9760000463575125, 0.0, 0.0, 0.0, 0.0, 0.0, 1.6952354566351483E9, 0.0, 2023-09-20 15:44:16.635
20.0, -130.42714100470766, 716.471334011294, 8.899091944564134, 8.65599844744429, 0.17600000835955143, -0.01600000075995922, 0.9760000463575125, 0.0, 0.0, 0.0, 0.0, 0.0, 1.6952354566351483E9, 0.0, 2023-09-20 15:44:16.635
21.0, -286.08364711049944, 950.1458930927329, -15.91888416139409, -19.756021515931934, 0.17600000835955143, -0.01600000075995922, 0.9760000463575125, 0.0, 0.0, 0.0, 0.0, 0.0, 1.6952354566507554E9, 0.0, 2023-09-20 15:44:16.650
21.0, -158.32118482422084, 1019.9548656656407, 1.00416313810274, 6.520515572745353, 0.17600000835955143, -0.01600000075995922, 0.9760000463575125, 0.0, 0.0, 0.0, 0.0, 0.0, 1.6952354566507554E9, 0.0, 2023-09-20 15:44:16.650
22.0, 83.34180056257173, 1242.8491631248035, 21.319299697410315, 31.480607877019793, 0.17600000835955143, -0.01600000075995922, 0.9760000463575125, 0.0, 0.0, 0.0, 0.0, 0.0, 1.69523545665146E9, 0.0, 2023-09-20 15:44:16.651
22.0, -99.16531727509573, 1297.0272238329053, 2.376706421840936, 8.64477874757722, 0.17600000835955143, -0.01600000075995922, 0.9760000463575125, 0.0, 0.0, 0.0, 0.0, 0.0, 1.69523545665146E9, 0.0, 2023-09-20 15:44:16.651
23.0, -316.99018034432083, 1216.6324644354172, -13.85445938585326, -17.306387044955045, 0.17600000835955143, -0.01600000075995922, 0.9760000463575125, 0.0, 0.0, 0.0, 0.0, 0.0, 1.695235456665208E9, 0.0, 2023-09-20 15:44:16.665
23.0, -106.3477951399982, 1110.5576819921844, 6.924424767959863, 2.503863020334393, 0.17600000835955143, -0.01600000075995922, 0.9760000463575125, 0.0, 0.0, 0.0, 0.0, 0.0, 1.695235456665208E9, 0.0, 2023-09-20 15:44:16.665
24.0, 85.38004603842273, 1111.346800882835, 25.08537895279005, 33.2944593555294, 0.17600000835955143, -0.01600000075995922, 0.9760000463575125, 0.0, 0.0, 0.0, 0.0, 0.0, 1.6952354566808107E9, 0.0, 2023-09-20 15:44:16.680
24.0, -158.03882237756625, 1047.9629764338024, 9.329180439468473, 13.652504788246006, 0.17600000835955143, -0.01600000075995922, 0.9760000463575125, 0.0, 0.0, 0.0, 0.0, 0.0, 1.6952354566808107E9, 0.0, 2023-09-20 15:44:16.680
25.0, -357.03702906984836, 1277.469417014625, -7.997776055242866, -19.281054221559316, 0.17600000835955143, -0.01600000075995922, 0.9760000463575125, 0.0, 0.0, 0.0, 0.0, 0.0, 1.6952354566815104E9, 0.0, 2023-09-20 15:44:16.681
25.0, -128.52914177719504, 1072.6388363414444, 10.080900330562145, 3.898845703806728, 0.17600000835955143, -0.01600000075995922, 0.9760000463575125, 0.0, 0.0, 0.0, 0.0, 0.0, 1.6952354566815104E9, 0.0, 2023-09-20 15:44:16.681
26.0, 43.35105033637956, 1133.0531802256592, 20.956529401708394, 34.3304116432555, 0.17600000835955143, -0.01600000075995922, 0.9760000463575125, 0.0, 0.0, 0.0, 0.0, 0.0, 1.6952354566954093E9, 0.0, 2023-09-20 15:44:16.695
26.0, -131.57903019106016, 1109.5329494043253, 6.707510570529848, 10.331473627593368, 0.17600000835955143, -0.01600000075995922, 0.9760000463575125, 0.0, 0.0, 0.0, 0.0, 0.0, 1.6952354566954093E9, 0.0, 2023-09-20 15:44:16.695
27.0, -327.94434731453657, 1056.7816605293192, -10.761562122497708, -19.019261224661022, 0.17600000835955143, -0.01600000075995922, 0.9760000463575125, 0.0, 0.0, 0.0, 0.0, 0.0, 1.6952354567107313E9, 0.0, 2023-09-20 15:44:16.710
27.0, -113.53962275478989, 878.4894099417143, 2.7619161172769964, 1.767102729063481, 0.17600000835955143, -0.01600000075995922, 0.9760000463575125, 0.0, 0.0, 0.0, 0.0, 0.0, 1.6952354567107313E9, 0.0, 2023-09-20 15:44:16.710
28.0, 25.20505575137213, 640.6373826097697, 23.802593267988414, 33.72828775038943, 0.17600000835955143, -0.01600000075995922, 0.9760000463575125, 0.0, 0.0, 0.0, 0.0, 0.0, 1.6952354567114086E9, 0.0, 2023-09-20 15:44:16.711
28.0, -121.30178511282429, 456.25096504436806, 13.775921486783773, 8.513882249128073, 0.17600000835955143, -0.01600000075995922, 0.9760000463575125, 0.0, 0.0, 0.0, 0.0, 0.0, 1.6952354567114086E9, 0.0, 2023-09-20 15:44:16.711
29.0, -311.60846430808306, 631.1679559219629, -9.673251235391945, -19.643824517261237, 0.17600000835955143, -0.01600000075995922, 0.9760000463575125, 0.0, 0.0, 0.0, 0.0, 0.0, 1.6952354567251315E9, 0.0, 2023-09-20 15:44:16.725
29.0, -132.42611753102392, 464.9256629915908, -1.6997845298610628, 5.548141584265977, 0.17600000835955143, -0.01600000075995922, 0.9760000463575125, 0.0, 0.0, 0.0, 0.0, 0.0, 1.6952354567251315E9, 0.0, 2023-09-20 15:44:16.725
30.0, 75.8694804511033, 667.4749046918005, 21.633451293688267, 34.188295444939286, 0.17600000835955143, -0.01600000075995922, 0.9760000463575125, 0.0, 0.0, 0.0, 0.0, 0.0, 1.6952354567407398E9, 0.0, 2023-09-20 15:44:16.740
30.0, -140.4912117854692, 535.1946432590485, 5.877252780366689, 14.097552882973105, 0.17600000835955143, -0.01600000075995922, 0.9760000463575125, 0.0, 0.0, 0.0, 0.0, 0.0, 1.6952354567407398E9, 0.0, 2023-09-20 15:44:16.740
31.0, -304.56997259147465, 618.7477481691167, -13.637545188423246, -18.211442834232002, 0.17600000835955143, -0.01600000075995922, 0.9760000463575125, 0.0, 0.0, 0.0, 0.0, 0.0, 1.6952354567415352E9, 0.0, 2023-09-20 15:44:16.741
31.0, -98.09383593779057, 704.6195910517126, 2.743216617498547, 1.0640015373937786, 0.17600000835955143, -0.01600000075995922, 0.9760000463575125, 0.0, 0.0, 0.0, 0.0, 0.0, 1.6952354567415352E9, 0.0, 2023-09-20 15:44:16.741
32.0, 114.89533648872748, 585.1148278675973, 19.273574421647936, 33.74698725016788, 0.17600000835955143, -0.01600000075995922, 0.9760000463575125, 0.0, 0.0, 0.0, 0.0, 0.0, 1.6952354567551043E9, 0.0, 2023-09-20 15:44:16.755
32.0, -78.75294331694022, 567.9973057704046, 2.1223932248540223, 9.250642540398985, 0.17600000835955143, -0.01600000075995922, 0.9760000463575125, 0.0, 0.0, 0.0, 0.0, 0.0, 1.6952354567551043E9, 0.0, 2023-09-20 15:44:16.755
33.0, 128.03360503306612, 447.4790296982974, -8.63355904771015, -15.653351264540106, 0.17600000835955143, -0.01600000075995922, 0.9760000463575125, 0.0, 0.0, 0.0, 0.0, 0.0, 1.6952354567707248E9, 0.0, 2023-09-20 15:44:16.770
33.0, 368.3820155854337, 562.9746201299131, 3.378999609965831, 2.4290650212205946, 0.17600000835955143, -0.01600000075995922, 0.9760000463575125, 0.0, 0.0, 0.0, 0.0, 0.0, 1.6952354567707248E9, 0.0, 2023-09-20 15:44:16.770
34.0, 567.1932272799313, 699.3463321141899, 17.88233163813129, 31.686302374582738, 0.17600000835955143, -0.01600000075995922, 0.9760000463575125, 0.0, 0.0, 0.0, 0.0, 0.0, 1.6952354567714422E9, 0.0, 2023-09-20 15:44:16.771
34.0, 344.18299292214215, 669.5393294673413, 7.560207760427147, 13.10273949475959, 0.17600000835955143, -0.01600000075995922, 0.9760000463575125, 0.0, 0.0, 0.0, 0.0, 0.0, 1.6952354567714422E9, 0.0, 2023-09-20 15:44:16.771
35.0, 216.9347668797709, 665.1599066192284, -9.781708334106952, -16.68182375235483, 0.17600000835955143, -0.01600000075995922, 0.9760000463575125, 0.0, 0.0, 0.0, 0.0, 0.0, 1.6952354567852943E9, 0.0, 2023-09-20 15:44:16.785
35.0, 363.3107112455182, 594.8348278524354, 2.055075025651604, 6.213843776378781, 0.17600000835955143, -0.01600000075995922, 0.9760000463575125, 0.0, 0.0, 0.0, 0.0, 0.0, 1.6952354567852943E9, 0.0, 2023-09-20 15:44:16.785
36.0, 556.8636236023158, 460.6584371421486, 22.68062328128144, 31.278653279412538, 0.17600000835955143, -0.01600000075995922, 0.9760000463575125, 0.0, 0.0, 0.0, 0.0, 0.0, 1.695235456800722E9, 0.0, 2023-09-20 15:44:16.800
36.0, 431.07208859268576, 319.9091722597368, 14.550080777611583, 11.116852618288249, 0.17600000835955143, -0.01600000075995922, 0.9760000463575125, 0.0, 0.0, 0.0, 0.0, 0.0, 1.695235456800722E9, 0.0, 2023-09-20 15:44:16.800
37.0, 665.5638158144429, 507.91955288220197, -12.044347807299346, -20.522701006848365, 0.17600000835955143, -0.01600000075995922, 0.9760000463575125, 0.0, 0.0, 0.0, 0.0, 0.0, 1.695235456801388E9, 0.0, 2023-09-20 15:44:16.801
37.0, 869.0218532038853, 407.7762517686933, 2.3131281225942075, 4.837560592684895, 0.17600000835955143, -0.01600000075995922, 0.9760000463575125, 0.0, 0.0, 0.0, 0.0, 0.0, 1.695235456801388E9, 0.0, 2023-09-20 15:44:16.801
38.0, 1060.17374978913, 357.31565161654726, 24.976921854075044, 30.691488986369222, 0.17600000835955143, -0.01600000075995922, 0.9760000463575125, 0.0, 0.0, 0.0, 0.0, 0.0, 1.6952354568152132E9, 0.0, 2023-09-20 15:44:16.815
38.0, 858.2864703810774, 275.46420118631795, 5.42472488572821, 13.035421295557171, 0.17600000835955143, -0.01600000075995922, 0.9760000463575125, 0.0, 0.0, 0.0, 0.0, 0.0, 1.6952354568152132E9, 0.0, 2023-09-20 15:44:16.815
39.0, 655.9971517277882, 146.47505171457306, -13.300954192411155, -14.946510172914714, 0.17600000835955143, -0.01600000075995922, 0.9760000463575125, 0.0, 0.0, 0.0, 0.0, 0.0, 1.6952354568307164E9, 0.0, 2023-09-20 15:44:16.830
39.0, 411.16647107852623, -25.822139244060963, 6.527995372656733, 7.2647556639276445, 0.17600000835955143, -0.01600000075995922, 0.9760000463575125, 0.0, 0.0, 0.0, 0.0, 0.0, 1.6952354568307164E9, 0.0, 2023-09-20 15:44:16.830
40.0, 611.6830771528184, 108.81425916077569, 20.75831470405683, 27.007687530014664, 0.17600000835955143, -0.01600000075995922, 0.9760000463575125, 0.0, 0.0, 0.0, 0.0, 0.0, 1.695235456831418E9, 0.0, 2023-09-20 15:44:16.831
40.0, 824.1187443858944, -124.983716619201, 7.474190061446279, 11.943370508495718, 0.17600000835955143, -0.01600000075995922, 0.9760000463575125, 0.0, 0.0, 0.0, 0.0, 0.0, 1.695235456831418E9, 0.0, 2023-09-20 15:44:16.831
41.0, 666.1023614080623, -227.41957640554756, -11.980769508052617, -15.436437067110091, 0.17600000835955143, -0.01600000075995922, 0.9760000463575125, 0.0, 0.0, 0.0, 0.0, 0.0, 1.6952354568452086E9, 0.0, 2023-09-20 15:44:16.845
41.0, 896.1062086829916, -65.59036542288959, -0.521716043818742, 0.3347210460342467, 0.17600000835955143, -0.01600000075995922, 0.9760000463575125, 0.0, 0.0, 0.0, 0.0, 0.0, 1.6952354568452086E9, 0.0, 2023-09-20 15:44:16.845
42.0, 1067.7545269993134, -286.2687721583061, 23.649257369805127, 31.802239273209125, 0.17600000835955143, -0.01600000075995922, 0.9760000463575125, 0.0, 0.0, 0.0, 0.0, 0.0, 1.6952354568607087E9, 0.0, 2023-09-20 15:44:16.860
42.0, 919.920021650847, -281.0366521202959, 8.842993445228785, 13.592666388954967, 0.17600000835955143, -0.01600000075995922, 0.9760000463575125, 0.0, 0.0, 0.0, 0.0, 0.0, 1.6952354568607087E9, 0.0, 2023-09-20 15:44:16.860
43.0, 1118.2020375016145, -108.74881091155112, -10.832620221655816, -19.262354721780866, 0.17600000835955143, -0.01600000075995922, 0.9760000463575125, 0.0, 0.0, 0.0, 0.0, 0.0, 1.6952354568614225E9, 0.0, 2023-09-20 15:44:16.861
43.0, 1337.494811303448, 96.67267395462841, 7.758422458078712, 4.960977291222662, 0.17600000835955143, -0.01600000075995922, 0.9760000463575125, 0.0, 0.0, 0.0, 0.0, 0.0, 1.6952354568614225E9, 0.0, 2023-09-20 15:44:16.861
44.0, 1553.2141106976196, 141.29716022592038, 25.15269715199247, 31.114097681362182, 0.17600000835955143, -0.01600000075995922, 0.9760000463575125, 0.0, 0.0, 0.0, 0.0, 0.0, 1.6952354568750782E9, 0.0, 2023-09-20 15:44:16.875
44.0, 1311.8858463568613, 251.02582492586225, 8.708357046823949, 9.508695637341589, 0.17600000835955143, -0.01600000075995922, 0.9760000463575125, 0.0, 0.0, 0.0, 0.0, 0.0, 1.6952354568750782E9, 0.0, 2023-09-20 15:44:16.875
45.0, 1191.8518873290159, 443.90929519059137, -10.735382822807878, -14.71463637566194, 0.17600000835955143, -0.01600000075995922, 0.9760000463575125, 0.0, 0.0, 0.0, 0.0, 0.0, 1.6952354568908036E9, 0.0, 2023-09-20 15:44:16.890
45.0, 1367.694503445644, 336.1066789678298, 5.963270479347557, 1.4679107326082885, 0.17600000835955143, -0.01600000075995922, 0.9760000463575125, 0.0, 0.0, 0.0, 0.0, 0.0, 1.6952354568908036E9, 0.0, 2023-09-20 15:44:16.890
46.0, 1564.1196589684114, 153.893143276684, 26.891750631388277, 35.026033035013825, 0.17600000835955143, -0.01600000075995922, 0.9760000463575125, 0.0, 0.0, 0.0, 0.0, 0.0, 1.6952354568916793E9, 0.0, 2023-09-20 15:44:16.891
46.0, 1403.176804275252, 391.7059016590938, 7.257275864016265, 10.522208525333554, 0.17600000835955143, -0.01600000075995922, 0.9760000463575125, 0.0, 0.0, 0.0, 0.0, 0.0, 1.6952354568916793E9, 0.0, 2023-09-20 15:44:16.891
47.0, 1190.378366746474, 282.844893748872, -13.06908039515838, -19.752281615976244, 0.17600000835955143, -0.01600000075995922, 0.9760000463575125, 0.0, 0.0, 0.0, 0.0, 0.0, 1.695235456905207E9, 0.0, 2023-09-20 15:44:16.905
47.0, 1355.4014522912912, 320.04380865814164, 5.256429387722164, -0.2861023466102779, 0.17600000835955143, -0.01600000075995922, 0.9760000463575125, 0.0, 0.0, 0.0, 0.0, 0.0, 1.695235456905207E9, 0.0, 2023-09-20 15:44:16.905
48.0, 1541.5044839363545, 109.84834149852395, 21.431496696081012, 32.49038086505607, 0.17600000835955143, -0.01600000075995922, 0.9760000463575125, 0.0, 0.0, 0.0, 0.0, 0.0, 1.6952354569208121E9, 0.0, 2023-09-20 15:44:16.920
48.0, 1378.9160732626915, 160.09763730317354, 6.385879174340516, 12.515575201716274, 0.17600000835955143, -0.01600000075995922, 0.9760000463575125, 0.0, 0.0, 0.0, 0.0, 0.0, 1.6952354569208121E9, 0.0, 2023-09-20 15:44:16.920
49.0, 1555.970416964963, 256.4692493113689, -12.455736802425236, -14.456583278719336, 0.17600000835955143, -0.01600000075995922, 0.9760000463575125, 0.0, 0.0, 0.0, 0.0, 0.0, 1.6952354569214373E9, 0.0, 2023-09-20 15:44:16.921
49.0, 1315.9642072585411, 141.89928411878645, 4.530888796318322, 1.8381608282215893, 0.17600000835955143, -0.01600000075995922, 0.9760000463575125, 0.0, 0.0, 0.0, 0.0, 0.0, 1.6952354569214373E9, 0.0, 2023-09-20 15:44:16.921
50.0, 1462.6038145711645, 114.88972663879395, 21.9550826898776, 30.904663283843547, 0.17600000835955143, -0.01600000075995922, 0.9600000455975533, 0.0, 0.0, 0.0, 0.0, 0.0, 1.6952354569350784E9, 0.0, 2023-09-20 15:44:16.935
50.0, 1313.0564350429922, 280.70941087417305, 7.937937655951828, 11.187910717446357, 0.17600000835955143, -0.01600000075995922, 0.9600000455975533, 0.0, 0.0, 0.0, 0.0, 0.0, 1.6952354569350784E9, 0.0, 2023-09-20 15:44:16.935
51.0, 1164.7525722500868, 459.66549370391294, -12.609072700608522, -14.931550573091954, 0.17600000835955143, -0.01600000075995922, 0.9600000455975533, 0.0, 0.0, 0.0, 0.0, 0.0, 1.6952354569508228E9, 0.0, 2023-09-20 15:44:16.950
51.0, 1378.9029836128466, 577.2853473103605, 3.82404770469293, 0.6189534426666796, 0.17600000835955143, -0.01600000075995922, 0.9600000455975533, 0.0, 0.0, 0.0, 0.0, 0.0, 1.6952354569508228E9, 0.0, 2023-09-20 15:44:16.950
52.0, 1494.632317791693, 566.8585062338971, 21.207102698739618, 32.87559056049213, 0.17600000835955143, -0.01600000075995922, 0.9600000455975533, 0.0, 0.0, 0.0, 0.0, 0.0, 1.6952354569514537E9, 0.0, 2023-09-20 15:44:16.951
52.0, 1337.6948959510773, 433.8807534594089, 8.375505950767547, 13.289734492544085, 0.17600000835955143, -0.01600000075995922, 0.9600000455975533, 0.0, 0.0, 0.0, 0.0, 0.0, 1.6952354569514537E9, 0.0, 2023-09-20 15:44:16.951
53.0, 1180.4975510635413, 566.0357282436453, -15.544894165825099, -17.313866844866425, 0.17600000835955143, -0.01600000075995922, 0.9600000455975533, 0.0, 0.0, 0.0, 0.0, 0.0, 1.6952354569651804E9, 0.0, 2023-09-20 15:44:16.965
53.0, 1337.5808290024288, 607.6346354507841, 0.4917968441732228, 1.2996152346022427, 0.17600000835955143, -0.01600000075995922, 0.9600000455975533, 0.0, 0.0, 0.0, 0.0, 0.0, 1.6952354569651804E9, 0.0, 2023-09-20 15:44:16.965
54.0, 1553.1280929986387, 507.4801146374084, 20.68725660489872, 31.372150778304785, 0.17600000835955143, -0.01600000075995922, 0.9600000455975533, 0.0, 0.0, 0.0, 0.0, 0.0, 1.6952354569807065E9, 0.0, 2023-09-20 15:44:16.980
54.0, 1355.223807043396, 441.8673098147847, 9.811627533752471, 11.05701421899721, 0.17600000835955143, -0.01600000075995922, 0.9600000455975533, 0.0, 0.0, 0.0, 0.0, 0.0, 1.6952354569807065E9, 0.0, 2023-09-20 15:44:16.980
55.0, 1184.8358350121416, 642.587740436662, -10.761562122497708, -15.630911864805967, 0.17600000835955143, -0.01600000075995922, 0.9600000455975533, 0.0, 0.0, 0.0, 0.0, 0.0, 1.6952354569814055E9, 0.0, 2023-09-20 15:44:16.981
55.0, 1319.6405289149843, 430.9281024443917, 3.622093107085675, 3.573474407661706, 0.17600000835955143, -0.01600000075995922, 0.9600000455975533, 0.0, 0.0, 0.0, 0.0, 0.0, 1.6952354569814055E9, 0.0, 2023-09-20 15:44:16.981
56.0, 1098.2646308378316, 543.4467325112782, 22.75168138043955, 32.621277363505214, 0.17600000835955143, -0.01600000075995922, 0.9600000455975533, 0.0, 0.0, 0.0, 0.0, 0.0, 1.6952354569950852E9, 0.0, 2023-09-20 15:44:16.995
56.0, 876.94857115997, 625.6272941376083, 8.940230844076723, 11.704016911331564, 0.17600000835955143, -0.01600000075995922, 0.9600000455975533, 0.0, 0.0, 0.0, 0.0, 0.0, 1.6952354569950852E9, 0.0, 2023-09-20 15:44:16.995
57.0, 699.7614610092714, 700.6197680491023, -6.161485176999122, -17.025894548278302, 0.17600000835955143, -0.01600000075995922, 0.9600000455975533, 0.0, 0.0, 0.0, 0.0, 0.0, 1.6952354570108316E9, 0.0, 2023-09-20 15:44:17.010
57.0, 859.9338963115588, 540.1705801500939, 3.895105803851038, 0.8396075400523841, 0.17600000835955143, -0.01600000075995922, 0.9600000455975533, 0.0, 0.0, 0.0, 0.0, 0.0, 1.6952354570108316E9, 0.0, 2023-09-20 15:44:17.010
58.0, 639.6874480210245, 624.0602760561742, 21.52125429501757, 31.23003457998857, 0.17600000835955143, -0.01600000075995922, 0.9600000455975533, 0.0, 0.0, 0.0, 0.0, 0.0, 1.6952354570115917E9, 0.0, 2023-09-20 15:44:17.011
58.0, 804.4094716194086, 625.1859859428369, 15.458876466844231, 11.311327415984124, 0.17600000835955143, -0.01600000075995922, 0.9600000455975533, 0.0, 0.0, 0.0, 0.0, 0.0, 1.6952354570115917E9, 0.0, 2023-09-20 15:44:17.011
59.0, 640.8430771073326, 664.9785214713775, -12.511835301760584, -12.874605597462505, 0.17600000835955143, -0.01600000075995922, 0.9600000455975533, 0.0, 0.0, 0.0, 0.0, 0.0, 1.6952354570250905E9, 0.0, 2023-09-20 15:44:17.025
59.0, 434.7540200990625, 424.91060341568664, 2.4253251212649047, 3.4388380092568696, 0.17600000835955143, -0.01600000075995922, 0.9600000455975533, 0.0, 0.0, 0.0, 0.0, 0.0, 1.6952354570250905E9, 0.0, 2023-09-20 15:44:17.025
60.0, 558.0080329887569, 205.42148486617953, 23.97836856590584, 37.071758310776204, 0.17600000835955143, -0.01600000075995922, 0.9760000463575125, 0.0, 0.0, 0.0, 0.0, 0.0, 1.6952354570408723E9, 0.0, 2023-09-20 15:44:17.040
60.0, 342.70199253968894, 90.61029612645507, 7.702323958743364, 9.284301640000194, 0.17600000835955143, -0.01600000075995922, 0.9760000463575125, 0.0, 0.0, 0.0, 0.0, 0.0, 1.6952354570408723E9, 0.0, 2023-09-20 15:44:17.040
61.0, 196.53735252143815, 40.9444247148931, -9.976183131802827, -12.30240090424195, 0.17600000835955143, -0.01600000075995922, 0.9760000463575125, 0.0, 0.0, 0.0, 0.0, 0.0, 1.695235457041603E9, 0.0, 2023-09-20 15:44:17.041
61.0, 408.19325061375275, 124.51996902469546, 3.910065403673798, 2.7880954169668257, 0.17600000835955143, -0.01600000075995922, 0.9760000463575125, 0.0, 0.0, 0.0, 0.0, 0.0, 1.695235457041603E9, 0.0, 2023-09-20 15:44:17.041
62.0, 549.8438313854858, 314.65274287201464, 23.252827974501997, 28.900076907593757, 0.17600000835955143, -0.01600000075995922, 0.9760000463575125, 0.0, 0.0, 0.0, 0.0, 0.0, 1.6952354570714557E9, 0.0, 2023-09-20 15:44:17.071
62.0, 377.8121733237058, 93.17586749605834, 6.165225076954812, 13.368272391613573, 0.17600000835955143, -0.01600000075995922, 0.9760000463575125, 0.0, 0.0, 0.0, 0.0, 0.0, 1.6952354570714557E9, 0.0, 2023-09-20 15:44:17.071
63.0, 169.4679566421546, 0.9798537883907557, -11.356206215452403, -18.080546335782856, 0.17600000835955143, -0.01600000075995922, 0.9760000463575125, 0.0, 0.0, 0.0, 0.0, 0.0, 1.6952354570723617E9, 0.0, 2023-09-20 15:44:17.072
63.0, 412.0191682684235, 12.652081550098956, 4.500969596672803, 2.533782219979912, 0.17600000835955143, -0.01600000075995922, 0.9760000463575125, 0.0, 0.0, 0.0, 0.0, 0.0, 1.6952354570723617E9, 0.0, 2023-09-20 15:44:17.072
64.0, 600.9981829794124, 218.49991501122713, 21.8802846907638, 33.758206950034946, 0.17600000835955143, -0.01600000075995922, 0.9760000463575125, 0.0, 0.0, 0.0, 0.0, 0.0, 1.695235457073014E9, 0.0, 2023-09-20 15:44:17.073
64.0, 398.40032257977873, 241.1487491428852, 9.123485941905528, 16.947356649208814, 0.17600000835955143, -0.01600000075995922, 0.9760000463575125, 0.0, 0.0, 0.0, 0.0, 0.0, 1.695235457073014E9, 0.0, 2023-09-20 15:44:17.073
65.0, 612.0196681488305, 88.19806065503508, -9.583493636455387, -13.708603287581354, 0.17600000835955143, -0.01600000075995922, 0.9760000463575125, 0.0, 0.0, 0.0, 0.0, 0.0, 1.6952354570851648E9, 0.0, 2023-09-20 15:44:17.085
65.0, 847.7418224560097, 31.721831424161792, 5.002116190735251, 5.738876482006162, 0.17600000835955143, -0.01600000075995922, 0.9760000463575125, 0.0, 0.0, 0.0, 0.0, 0.0, 1.6952354570851648E9, 0.0, 2023-09-20 15:44:17.085
66.0, 634.5114264823496, 211.2071100976318, 18.491935330908746, 31.480607877019793, 0.17600000835955143, -0.01600000075995922, 0.9760000463575125, 0.0, 0.0, 0.0, 0.0, 0.0, 1.695235457100696E9, 0.0, 2023-09-20 15:44:17.100
66.0, 863.380214120727, 91.25355891883373, 11.715236611198634, 13.409411291126162, 0.17600000835955143, -0.01600000075995922, 0.9760000463575125, 0.0, 0.0, 0.0, 0.0, 0.0, 1.695235457100696E9, 0.0, 2023-09-20 15:44:17.100
67.0, 1088.9111410486512, 110.1624930948019, -11.10189301846549, -19.340892620850354, 0.17600000835955143, -0.01600000075995922, 0.9760000463575125, 0.0, 0.0, 0.0, 0.0, 0.0, 1.69523545710154E9, 0.0, 2023-09-20 15:44:17.101
67.0, 876.6736885132268, -55.758168439380825, 5.2938283872790635, 2.4290650212205946, 0.17600000835955143, -0.01600000075995922, 0.9760000463575125, 0.0, 0.0, 0.0, 0.0, 0.0, 1.69523545710154E9, 0.0, 2023-09-20 15:44:17.101
68.0, 1075.3876628088765, -296.2281257403083, 22.908757178578526, 33.31689875526354, 0.17600000835955143, -0.01600000075995922, 0.9760000463575125, 0.0, 0.0, 0.0, 0.0, 0.0, 1.6952354571150825E9, 0.0, 2023-09-20 15:44:17.115
68.0, 850.1596677773632, -370.95880665490404, 9.119746041949838, 12.796067698393017, 0.17600000835955143, -0.01600000075995922, 0.9760000463575125, 0.0, 0.0, 0.0, 0.0, 0.0, 1.6952354571150825E9, 0.0, 2023-09-20 15:44:17.115
69.0, 1088.492272253614, -314.250703626778, -6.486856473144144, -20.425463608000427, 0.17600000835955143, -0.01600000075995922, 0.9760000463575125, 0.0, 0.0, 0.0, 0.0, 0.0, 1.6952354571306973E9, 0.0, 2023-09-20 15:44:17.130
69.0, 859.5823457157239, -511.2162746931426, 4.826340892817825, 0.03178914962336421, 0.17600000835955143, -0.01600000075995922, 0.9760000463575125, 0.0, 0.0, 0.0, 0.0, 0.0, 1.6952354571306973E9, 0.0, 2023-09-20 15:44:17.130
70.0, 1044.7391826719977, -690.733342516236, 19.699923016596586, 32.33704496687278, 0.17600000835955143, -0.01600000075995922, 0.9760000463575125, 0.0, 0.0, 0.0, 0.0, 0.0, 1.6952354571313932E9, 0.0, 2023-09-20 15:44:17.131
70.0, 844.9649467389099, -742.5646160021424, 9.905125032644719, 15.06618697149679, 0.17600000835955143, -0.01600000075995922, 0.9760000463575125, 0.0, 0.0, 0.0, 0.0, 0.0, 1.6952354571313932E9, 0.0, 2023-09-20 15:44:17.131
71.0, 687.8311801506206, -837.1803449811414, -15.840346262324601, -16.865078850183636, 0.17600000835955143, -0.01600000075995922, 0.9760000463575125, 0.0, 0.0, 0.0, 0.0, 0.0, 1.6952354571452963E9, 0.0, 2023-09-20 15:44:17.145
71.0, 868.8722572056577, -965.3841154621914, -0.7685494408942759, 2.0700346254743636, 0.17600000835955143, -0.01600000075995922, 0.9760000463575125, 0.0, 0.0, 0.0, 0.0, 0.0, 1.6952354571452963E9, 0.0, 2023-09-20 15:44:17.145
72.0, 1058.303799811285, -775.6028922107071, 20.414243908133358, 36.29759901994839, 0.17600000835955143, -0.01600000075995922, 0.9760000463575125, 0.0, 0.0, 0.0, 0.0, 0.0, 1.6952354571606984E9, 0.0, 2023-09-20 15:44:17.160
72.0, 849.752018682193, -791.5535655217245, 6.688811070751399, 15.129765270743519, 0.17600000835955143, -0.01600000075995922, 0.9760000463575125, 0.0, 0.0, 0.0, 0.0, 0.0, 1.6952354571606984E9, 0.0, 2023-09-20 15:44:17.160
73.0, 633.4305953951553, -884.9613068150356, -10.331473627593368, -13.966656384523958, 0.17600000835955143, -0.01600000075995922, 0.9760000463575125, 0.0, 0.0, 0.0, 0.0, 0.0, 1.6952354571614232E9, 0.0, 2023-09-20 15:44:17.161
73.0, 875.8883095225319, -1017.346285446547, 1.1088803368620574, -0.080407849047333, 0.17600000835955143, -0.01600000075995922, 0.9760000463575125, 0.0, 0.0, 0.0, 0.0, 0.0, 1.6952354571614232E9, 0.0, 2023-09-20 15:44:17.161
74.0, 1091.6898867157288, -951.5876245256513, 21.229542098473758, 32.75217386195436, 0.17600000835955143, -0.01600000075995922, 0.9760000463575125, 0.0, 0.0, 0.0, 0.0, 0.0, 1.6952354571751711E9, 0.0, 2023-09-20 15:44:17.175
74.0, 1322.5333415307105, -1112.6520259673707, 7.246056164149195, 15.761808363255113, 0.17600000835955143, -0.01600000075995922, 0.9760000463575125, 0.0, 0.0, 0.0, 0.0, 0.0, 1.6952354571751711E9, 0.0, 2023-09-20 15:44:17.175
75.0, 1153.8993825786747, -928.9387903939933, -12.27622160455212, -18.132904935162514, 0.17600000835955143, -0.01600000075995922, 0.9760000463575125, 0.0, 0.0, 0.0, 0.0, 0.0, 1.6952354571908045E9, 0.0, 2023-09-20 15:44:17.190
75.0, 1363.1505249994807, -906.0543425651267, 8.540061548817903, 5.144232389051467, 0.17600000835955143, -0.01600000075995922, 0.9760000463575125, 0.0, 0.0, 0.0, 0.0, 0.0, 1.6952354571908045E9, 0.0, 2023-09-20 15:44:17.190
76.0, 1524.2598052406684, -1132.4660159326158, 18.630311629269272, 34.969934535678476, 0.17600000835955143, -0.01600000075995922, 0.9760000463575125, 0.0, 0.0, 0.0, 0.0, 0.0, 1.6952354571915507E9, 0.0, 2023-09-20 15:44:17.191
76.0, 1376.0101709971204, -1219.4186899024062, 10.828880321700126, 13.940477084834129, 0.17600000835955143, -0.01600000075995922, 0.9760000463575125, 0.0, 0.0, 0.0, 0.0, 0.0, 1.6952354571915507E9, 0.0, 2023-09-20 15:44:17.191
77.0, 1134.4257235093974, -1432.3050150801428, -9.097306642215699, -16.539707554038614, 0.17600000835955143, -0.01600000075995922, 0.9760000463575125, 0.0, 0.0, 0.0, 0.0, 0.0, 1.6952354572051752E9, 0.0, 2023-09-20 15:44:17.205
77.0, 1357.7613291633315, -1367.8553191437386, 1.2622162350453436, 3.4089188096113503, 0.17600000835955143, -0.01600000075995922, 0.9760000463575125, 0.0, 0.0, 0.0, 0.0, 0.0, 1.6952354572051752E9, 0.0, 2023-09-20 15:44:17.205
78.0, 1600.740759334527, -1252.045577115845, 22.38517118478194, 32.07899186993018, 0.17600000835955143, -0.01600000075995922, 0.9760000463575125, 0.0, 0.0, 0.0, 0.0, 0.0, 1.695235457220849E9, 0.0, 2023-09-20 15:44:17.220
78.0, 1399.7772352155298, -1344.2415908235125, 7.212397064547986, 15.376598667819053, 0.17600000835955143, -0.01600000075995922, 0.9760000463575125, 0.0, 0.0, 0.0, 0.0, 0.0, 1.695235457220849E9, 0.0, 2023-09-20 15:44:17.220
79.0, 1155.1335495640524, -1352.424491926562, -12.930704096797854, -16.049780659843236, 0.17600000835955143, -0.01600000075995922, 0.9760000463575125, 0.0, 0.0, 0.0, 0.0, 0.0, 1.6952354572215707E9, 0.0, 2023-09-20 15:44:17.221
79.0, 1372.193603092339, -1546.4654612275772, 2.174751824233681, 4.018522502388805, 0.17600000835955143, -0.01600000075995922, 0.9760000463575125, 0.0, 0.0, 0.0, 0.0, 0.0, 1.6952354572215707E9, 0.0, 2023-09-20 15:44:17.221
80.0, 1593.0739644253626, -1759.2975578559563, 20.70221620472148, 30.265140391420573, 0.17600000835955143, -0.01600000075995922, 0.9760000463575125, 0.0, 0.0, 0.0, 0.0, 0.0, 1.6952354572350738E9, 0.0, 2023-09-20 15:44:17.235
80.0, 1382.203445323743, -1758.3999818665907, 10.320253927726299, 13.648764888290316, 0.17600000835955143, -0.01600000075995922, 0.9760000463575125, 0.0, 0.0, 0.0, 0.0, 0.0, 1.6952354572350738E9, 0.0, 2023-09-20 15:44:17.235
81.0, 1621.1793125923723, -1870.825114434585, -7.762162358034402, -18.70884952833876, 0.17600000835955143, -0.01600000075995922, 0.9760000463575125, 0.0, 0.0, 0.0, 0.0, 0.0, 1.6952354572507958E9, 0.0, 2023-09-20 15:44:17.250
81.0, 1382.1940955738537, -1795.6082465257496, 6.090427077841014, 1.7633628291077912, 0.17600000835955143, -0.01600000075995922, 0.9760000463575125, 0.0, 0.0, 0.0, 0.0, 0.0, 1.6952354572507958E9, 0.0, 2023-09-20 15:44:17.250
82.0, 1568.1961499201134, -1884.4009512737393, 26.039053441490978, 28.092258517164737, 0.17600000835955143, -0.01600000075995922, 0.9760000463575125, 0.0, 0.0, 0.0, 0.0, 0.0, 1.6952354572514925E9, 0.0, 2023-09-20 15:44:17.251
82.0, 1392.0992206064984, -1764.570816793479, 10.742862622719258, 15.847826062235981, 0.17600000835955143, -0.01600000075995922, 0.9760000463575125, 0.0, 0.0, 0.0, 0.0, 0.0, 1.6952354572514925E9, 0.0, 2023-09-20 15:44:17.251
83.0, 1629.0555418990552, -1828.889616231434, -8.405425150413066, -6.071727578062564, 0.17600000835955143, -0.01600000075995922, 0.9760000463575125, 0.0, 0.0, 0.0, 0.0, 0.0, 1.6952354572651803E9, 0.0, 2023-09-20 15:44:17.265
83.0, 1840.7488389909267, -1815.5493930894881, 6.168964976910502, 2.2271104236133397, 0.17600000835955143, -0.01600000075995922, 0.9760000463575125, 0.0, 0.0, 0.0, 0.0, 0.0, 1.6952354572651803E9, 0.0, 2023-09-20 15:44:17.265
84.0, 2070.425445019733, -1792.8594200583175, 20.945309701841325, 36.970781011972576, 0.17600000835955143, -0.01600000075995922, 0.9760000463575125, 0.0, 0.0, 0.0, 0.0, 0.0, 1.6952354572808E9, 0.0, 2023-09-20 15:44:17.280
84.0, 1860.164529610891, -1790.0881541911513, 8.955190443899482, 14.594959577079862, 0.17600000835955143, -0.01600000075995922, 0.9760000463575125, 0.0, 0.0, 0.0, 0.0, 0.0, 1.6952354572808E9, 0.0, 2023-09-20 15:44:17.280
85.0, 1663.5299396906048, -1696.175526403822, -11.715236611198634, -14.396744879428297, 0.17600000835955143, -0.01600000075995922, 0.9760000463575125, 0.0, 0.0, 0.0, 0.0, 0.0, 1.695235457281495E9, 0.0, 2023-09-20 15:44:17.281
85.0, 1873.8656530985609, -1931.8191428119317, 1.5950673311017454, 1.7409234293736517, 0.17600000835955143, -0.01600000075995922, 0.9760000463575125, 0.0, 0.0, 0.0, 0.0, 0.0, 1.695235457281495E9, 0.0, 2023-09-20 15:44:17.281
86.0, 2071.442697807681, -1819.0200202483684, 24.535613659303635, 34.595944540109485, 0.17600000835955143, -0.01600000075995922, 0.9760000463575125, 0.0, 0.0, 0.0, 0.0, 0.0, 1.6952354572951305E9, 0.0, 2023-09-20 15:44:17.295
86.0, 1862.0045603890903, -1786.1014208383858, 7.911758356261998, 16.382631755899638, 0.17600000835955143, -0.01600000075995922, 0.9760000463575125, 0.0, 0.0, 0.0, 0.0, 0.0, 1.6952354572951305E9, 0.0, 2023-09-20 15:44:17.295
87.0, 2071.925144901965, -1712.118719914928, -9.493736037518829, -9.48251633765176, 0.17600000835955143, -0.01600000075995922, 0.9760000463575125, 0.0, 0.0, 0.0, 0.0, 0.0, 1.6952354573109508E9, 0.0, 2023-09-20 15:44:17.310
87.0, 1856.665853202343, -1928.5729096503928, -0.686271641869098, 2.986310114618391, 0.17600000835955143, -0.01600000075995922, 0.9760000463575125, 0.0, 0.0, 0.0, 0.0, 0.0, 1.6952354573109508E9, 0.0, 2023-09-20 15:44:17.310
88.0, 2097.6780959968455, -1891.0691928947344, 25.694982645567507, 36.42475561844185, 0.17600000835955143, -0.01600000075995922, 0.9760000463575125, 0.0, 0.0, 0.0, 0.0, 0.0, 1.695235457311483E9, 0.0, 2023-09-20 15:44:17.311
88.0, 1859.0986581235193, -1654.071732702665, 10.095859930384904, 17.205409746151417, 0.17600000835955143, -0.01600000075995922, 0.9760000463575125, 0.0, 0.0, 0.0, 0.0, 0.0, 1.695235457311483E9, 0.0, 2023-09-20 15:44:17.311
89.0, 1625.0837681461126, -1820.688015628606, -9.134705641772598, -13.009241995867342, 0.17600000835955143, -0.01600000075995922, 0.9760000463575125, 0.0, 0.0, 0.0, 0.0, 0.0, 1.6952354573251364E9, 0.0, 2023-09-20 15:44:17.325
89.0, 1408.0442840675823, -1674.635572609026, 0.21130434749647975, -6.112866477575153, 0.17600000835955143, -0.01600000075995922, 0.9760000463575125, 0.0, 0.0, 0.0, 0.0, 0.0, 1.6952354573251364E9, 0.0, 2023-09-20 15:44:17.325
90.0, 1552.6531257042661, -1655.9136334308423, 26.30832623830065, 36.8511042133905, 0.17600000835955143, -0.01600000075995922, 0.9760000463575125, 0.0, 0.0, 0.0, 0.0, 0.0, 1.6952354573407855E9, 0.0, 2023-09-20 15:44:17.340
90.0, 1358.1072699092329, -1623.8701706104912, 8.207210452761501, 17.246548645664006, 0.17600000835955143, -0.01600000075995922, 0.9760000463575125, 0.0, 0.0, 0.0, 0.0, 0.0, 1.6952354573407855E9, 0.0, 2023-09-20 15:44:17.340
91.0, 1145.0470393835567, -1747.0325559512712, -11.348726415541023, -14.68845707597211, 0.17600000835955143, -0.01600000075995922, 0.9760000463575125, 0.0, 0.0, 0.0, 0.0, 0.0, 1.695235457341536E9, 0.0, 2023-09-20 15:44:17.341
91.0, 1376.2102556447499, -1975.6451604426838, 2.3841862217523158, 0.6152135427109897, 0.17600000835955143, -0.01600000075995922, 0.9760000463575125, 0.0, 0.0, 0.0, 0.0, 0.0, 1.695235457341536E9, 0.0, 2023-09-20 15:44:17.341
92.0, 1615.0346569651738, -1859.5399663182907, 21.379138096701354, 37.33729120763019, 0.17600000835955143, -0.01600000075995922, 0.9760000463575125, 0.0, 0.0, 0.0, 0.0, 0.0, 1.695235457355154E9, 0.0, 2023-09-20 15:44:17.355
92.0, 1370.9164272574708, -2092.1561337122694, 10.795221222098917, 20.937829901929945, 0.17600000835955143, -0.01600000075995922, 0.9760000463575125, 0.0, 0.0, 0.0, 0.0, 0.0, 1.695235457355154E9, 0.0, 2023-09-20 15:44:17.355
93.0, 1141.4342960263602, -1876.1600817213766, -6.25124277593568, -10.956036920193583, 0.17600000835955143, -0.01600000075995922, 0.9760000463575125, 0.0, 0.0, 0.0, 0.0, 0.0, 1.6952354573707633E9, 0.0, 2023-09-20 15:44:17.370
93.0, 905.2614837745205, -1958.3294236478396, 3.906325503718108, 2.8404540163464844, 0.17600000835955143, -0.01600000075995922, 0.9760000463575125, 0.0, 0.0, 0.0, 0.0, 0.0, 1.6952354573707633E9, 0.0, 2023-09-20 15:44:17.370
94.0, 1120.318820876535, -1785.4076693966053, 19.692443216685206, 32.91298956004903, 0.17600000835955143, -0.01600000075995922, 0.9760000463575125, 0.0, 0.0, 0.0, 0.0, 0.0, 1.695235457371441E9, 0.0, 2023-09-20 15:44:17.371
94.0, 1354.632902850397, -1685.5186814800836, 12.534274701494724, 21.424016896169633, 0.17600000835955143, -0.01600000075995922, 0.9760000463575125, 0.0, 0.0, 0.0, 0.0, 0.0, 1.695235457371441E9, 0.0, 2023-09-20 15:44:17.371
95.0, 1132.862445327919, -1894.0068843099289, -11.89101190911606, -15.806687162723392, 0.17600000835955143, -0.01600000075995922, 0.9760000463575125, 0.0, 0.0, 0.0, 0.0, 0.0, 1.6952354573850017E9, 0.0, 2023-09-20 15:44:17.385
95.0, 1359.9342110375874, -1794.8172576851211, 0.48431704426184297, -0.20382454758509994, 0.17600000835955143, -0.01600000075995922, 0.9760000463575125, 0.0, 0.0, 0.0, 0.0, 0.0, 1.6952354573850017E9, 0.0, 2023-09-20 15:44:17.385
96.0, 1601.1072695301846, -1777.5576193896122, 24.191542863380164, 37.25501340860501, 0.17600000835955143, -0.01600000075995922, 0.9760000463575125, 0.0, 0.0, 0.0, 0.0, 0.0, 1.6952354574007912E9, 0.0, 2023-09-20 15:44:17.400
96.0, 1807.0280310404487, -1622.7407208238728, 11.47214311407879, 23.398684072773904, 0.17600000835955143, -0.01600000075995922, 0.9760000463575125, 0.0, 0.0, 0.0, 0.0, 0.0, 1.6952354574007912E9, 0.0, 2023-09-20 15:44:17.400
97.0, 1677.5321251247078, -1436.5441916799173, -13.278514792677015, -14.823093474376947, 0.17600000835955143, -0.01600000075995922, 0.9760000463575125, 0.0, 0.0, 0.0, 0.0, 0.0, 1.6952354574015152E9, 0.0, 2023-09-20 15:44:17.401
97.0, 1844.327923248522, -1440.261652235873, 4.826340892817825, -0.8096883404068649, 0.17600000835955143, -0.01600000075995922, 0.9760000463575125, 0.0, 0.0, 0.0, 0.0, 0.0, 1.6952354574015152E9, 0.0, 2023-09-20 15:44:17.401
98.0, 2089.420396894682, -1271.221914138645, 22.893797578755766, 33.97886104742065, 0.17600000835955143, -0.01600000075995922, 0.9760000463575125, 0.0, 0.0, 0.0, 0.0, 0.0, 1.6952354574151282E9, 0.0, 2023-09-20 15:44:17.415
98.0, 1853.73564158706, -1195.215927339159, 13.405671391170472, 20.889211202505976, 0.17600000835955143, -0.01600000075995922, 0.9760000463575125, 0.0, 0.0, 0.0, 0.0, 0.0, 1.6952354574151282E9, 0.0, 2023-09-20 15:44:17.415
99.0, 2055.9108932917006, -1342.8073391905054, -9.590973436366767, -16.610765653196722, 0.17600000835955143, -0.01600000075995922, 0.9760000463575125, 0.0, 0.0, 0.0, 0.0, 0.0, 1.695235457430883E9, 0.0, 2023-09-20 15:44:17.430
99.0, 1828.1715554399416, -1444.7158730830997, 3.708110806066543, -3.2742824112065136, 0.17600000835955143, -0.01600000075995922, 0.9760000463575125, 0.0, 0.0, 0.0, 0.0, 0.0, 1.695235457430883E9, 0.0, 2023-09-20 15:44:17.430
100.0, 1622.5668154759333, -1315.5733877131715, 26.01287414180115, 30.096844893414527, 0.17600000835955143, -0.01600000075995922, 0.9760000463575125, 0.0, 0.0, 0.0, 0.0, 0.0, 1.695235457431656E9, 0.0, 2023-09-20 15:44:17.431
100.0, 1799.2901780321263, -1189.0563121121377, 12.459476702380925, 20.597499005962163, 0.17600000835955143, -0.01600000075995922, 0.9760000463575125, 0.0, 0.0, 0.0, 0.0, 0.0, 1.695235457431656E9, 0.0, 2023-09-20 15:44:17.431
0.0, 144.2217619912699, 166.3937588785775, -9.561054236721247, -16.393851455766708, 0.17600000835955143, -0.01600000075995922, 0.9760000463575125, 0.0, 0.0, 0.0, 0.0, 0.0, 1.6952354574457726E9, 0.0, 2023-09-20 15:44:17.445
1.0, -89.36303949123248, 54.49221230437979, 1.2622162350453436, 2.1223932248540223, 0.17600000835955143, -0.01600000075995922, 0.9760000463575125, 0.0, 0.0, 0.0, 0.0, 0.0, 1.6952354574465237E9, 0.0, 2023-09-20 15:44:17.446
1.0, 116.72975741699338, 60.12450163764879, 21.786787191871554, 31.839638272766024, 0.17600000835955143, -0.01600000075995922, 0.9760000463575125, 0.0, 0.0, 0.0, 0.0, 0.0, 1.6952354574465237E9, 0.0, 2023-09-20 15:44:17.446
2.0, -101.88983439281583, 244.99523624731228, 10.600746424403042, 19.15389762306586, 0.1600000075995922, -0.01600000075995922, 0.9760000463575125, 0.0, 0.0, 0.0, 0.0, 0.0, 1.6952354574599988E9, 0.0, 2023-09-20 15:44:17.459
2.0, -332.5537740099244, 52.53624462755397, -15.657091164495796, -15.152204670477659, 0.1600000075995922, -0.01600000075995922, 0.9760000463575125, 0.0, 0.0, 0.0, 0.0, 0.0, 1.6952354574599988E9, 0.0, 2023-09-20 15:44:17.459
3.0, -105.20899560349062, 96.14347811089829, 8.973889943677932, 9.112266242038459, 0.1600000075995922, -0.01600000075995922, 0.9760000463575125, 0.0, 0.0, 0.0, 0.0, 0.0, 1.695235457475888E9, 0.0, 2023-09-20 15:44:17.475
3.0, -343.94924917491153, 153.88379352679476, 20.230988810304552, 33.28697955561802, 0.1600000075995922, -0.01600000075995922, 0.9760000463575125, 0.0, 0.0, 0.0, 0.0, 0.0, 1.695235457475888E9, 0.0, 2023-09-20 15:44:17.475
4.0, -105.12110795453191, 353.24290056480095, 4.923578291665763, 18.192743334453553, 0.1600000075995922, -0.01600000075995922, 0.9760000463575125, 0.0, 0.0, 0.0, 0.0, 0.0, 1.6952354574764545E9, 0.0, 2023-09-20 15:44:17.476
4.0, -305.9144666255452, 209.7840781644918, -10.795221222098917, -17.54200074216351, 0.1600000075995922, -0.01600000075995922, 0.9760000463575125, 0.0, 0.0, 0.0, 0.0, 0.0, 1.6952354574764545E9, 0.0, 2023-09-20 15:44:17.476
5.0, -116.32023837184533, 3.3116814107634127, 1.2285571354441345, 6.404578674118966, 0.1600000075995922, -0.01600000075995922, 0.9760000463575125, 0.0, 0.0, 0.0, 0.0, 0.0, 1.6952354574900687E9, 0.0, 2023-09-20 15:44:17.490
5.0, 93.78173128888011, -209.16138482186943, 25.874497843440622, 36.611750616226345, 0.1600000075995922, -0.01600000075995922, 0.9760000463575125, 0.0, 0.0, 0.0, 0.0, 0.0, 1.6952354574900687E9, 0.0, 2023-09-20 15:44:17.490
6.0, -115.15525953564793, -242.80178492330015, 14.561300477478653, 17.751435139682144, 0.1600000075995922, -0.01600000075995922, 0.9760000463575125, 0.0, 0.0, 0.0, 0.0, 0.0, 1.6952354575058122E9, 0.0, 2023-09-20 15:44:17.505
6.0, -357.1099571189843, -304.9327428871766, -13.360792591702193, -17.242808745708317, 0.1600000075995922, -0.01600000075995922, 0.9760000463575125, 0.0, 0.0, 0.0, 0.0, 0.0, 1.6952354575058122E9, 0.0, 2023-09-20 15:44:17.505
7.0, -601.4918497735634, -418.4499262422323, 0.3309811460785568, 3.292981910984963, 0.1600000075995922, -0.01600000075995922, 0.9760000463575125, 0.0, 0.0, 0.0, 0.0, 0.0, 1.6952354575066736E9, 0.0, 2023-09-20 15:44:17.506
7.0, -843.2689021090046, -329.0476178014651, 25.328472449909896, 36.664109215606004, 0.1600000075995922, -0.01600000075995922, 0.9760000463575125, 0.0, 0.0, 0.0, 0.0, 0.0, 1.6952354575066736E9, 0.0, 2023-09-20 15:44:17.506
8.0, -647.6814841763116, -359.767156037502, 8.68217774713412, 15.11480567092076, 0.1600000075995922, -0.01600000075995922, 0.9760000463575125, 0.0, 0.0, 0.0, 0.0, 0.0, 1.695235457520105E9, 0.0, 2023-09-20 15:44:17.520
8.0, -859.9825150109828, -303.4704420045018, -9.179584441240877, -20.010334712918848, 0.1600000075995922, -0.01600000075995922, 0.9760000463575125, 0.0, 0.0, 0.0, 0.0, 0.0, 1.695235457520105E9, 0.0, 2023-09-20 15:44:17.520
9.0, -1062.6869625593536, -500.8735813656822, 5.256429387722164, 0.20382454758509994, 0.1600000075995922, -0.01600000075995922, 0.9760000463575125, 0.0, 0.0, 0.0, 0.0, 0.0, 1.695235457535765E9, 0.0, 2023-09-20 15:44:17.535
9.0, -875.9294484220445, -332.6828005583957, 27.19842242775485, 35.30278563173488, 0.1600000075995922, -0.01600000075995922, 0.9760000463575125, 0.0, 0.0, 0.0, 0.0, 0.0, 1.695235457535765E9, 0.0, 2023-09-20 15:44:17.535
10.0, -1117.833657355979, -203.34958029072732, 11.84987300960347, 13.753482087049633, 0.1600000075995922, -0.01600000075995922, 0.9760000463575125, 0.0, 0.0, 0.0, 0.0, 0.0, 1.6952354575366008E9, 0.0, 2023-09-20 15:44:17.536
10.0, -1316.0464850575663, -311.38407031074166, -14.998868772294372, -23.09949207631871, 0.1600000075995922, -0.01600000075995922, 0.9760000463575125, 0.0, 0.0, 0.0, 0.0, 0.0, 1.6952354575366008E9, 0.0, 2023-09-20 15:44:17.536
11.0, -1555.6787047684193, -509.52770986314863, 4.796421693172306, 1.8606002279557288, 0.1600000075995922, -0.01600000075995922, 0.9760000463575125, 0.0, 0.0, 0.0, 0.0, 0.0, 1.6952354575501094E9, 0.0, 2023-09-20 15:44:17.550
11.0, -1366.220982863102, -301.2152823312208, 24.81610615598038, 35.17188913328573, 0.1600000075995922, -0.01600000075995922, 0.9760000463575125, 0.0, 0.0, 0.0, 0.0, 0.0, 1.6952354575501094E9, 0.0, 2023-09-20 15:44:17.550
12.0, -1559.3194973752834, -187.76541717536747, 9.598453236278147, 17.029634448233992, 0.17600000835955143, -0.01600000075995922, 0.9760000463575125, 0.0, 0.0, 0.0, 0.0, 0.0, 1.6952354575657763E9, 0.0, 2023-09-20 15:44:17.565
12.0, -1791.3597201760858, -383.13031106069684, -15.223262769635767, -22.482408583629876, 0.17600000835955143, -0.01600000075995922, 0.9760000463575125, 0.0, 0.0, 0.0, 0.0, 0.0, 1.6952354575657763E9, 0.0, 2023-09-20 15:44:17.565
13.0, -2028.022459322121, -371.0616539036855, 3.218183911871165, 0.47683724435046315, 0.17600000835955143, -0.01600000075995922, 0.9760000463575125, 0.0, 0.0, 0.0, 0.0, 0.0, 1.6952354575666373E9, 0.0, 2023-09-20 15:44:17.566
13.0, -1835.21004715655, -334.17502064071596, 24.28130046231672, 34.90261633647606, 0.17600000835955143, -0.01600000075995922, 0.9760000463575125, 0.0, 0.0, 0.0, 0.0, 0.0, 1.6952354575666373E9, 0.0, 2023-09-20 15:44:17.566
14.0, -1598.0199821167625, -474.2903724806383, 15.840346262324601, 19.329672920983285, 0.17600000835955143, -0.01600000075995922, 0.9760000463575125, 0.0, 0.0, 0.0, 0.0, 0.0, 1.6952354575800946E9, 0.0, 2023-09-20 15:44:17.580
14.0, -1806.8017670931295, -247.55145786702633, -12.66143129998818, -19.46056941943243, 0.17600000835955143, -0.01600000075995922, 0.9760000463575125, 0.0, 0.0, 0.0, 0.0, 0.0, 1.6952354575800946E9, 0.0, 2023-09-20 15:44:17.580
15.0, -1595.8489701924846, -359.00795634649694, 5.338707186747342, 7.994036155287176, 0.17600000835955143, -0.01600000075995922, 0.9760000463575125, 0.0, 0.0, 0.0, 0.0, 0.0, 1.6952354575958452E9, 0.0, 2023-09-20 15:44:17.595
15.0, -1355.0237223957665, -218.18950331490487, 24.217722163069993, 39.61115038068965, 0.17600000835955143, -0.01600000075995922, 0.9760000463575125, 0.0, 0.0, 0.0, 0.0, 0.0, 1.6952354575958452E9, 0.0, 2023-09-20 15:44:17.595
16.0, -1111.4272087318823, -227.75242750160396, 10.099599830340594, 22.029880688991398, 0.17600000835955143, -0.01600000075995922, 0.9760000463575125, 0.0, 0.0, 0.0, 0.0, 0.0, 1.6952354575964231E9, 0.0, 2023-09-20 15:44:17.596
16.0, -1257.8873008466326, 13.734782587271184, -14.172350882086903, -24.78618695633486, 0.17600000835955143, -0.01600000075995922, 0.9760000463575125, 0.0, 0.0, 0.0, 0.0, 0.0, 1.6952354575964231E9, 0.0, 2023-09-20 15:44:17.596
17.0, -1099.4950579232536, 72.27169669372961, 5.073174289893359, 0.3459407459013164, 0.17600000835955143, -0.01600000075995922, 0.9760000463575125, 0.0, 0.0, 0.0, 0.0, 0.0, 1.6952354576099913E9, 0.0, 2023-09-20 15:44:17.609
17.0, -1340.123960972298, 199.63772958470508, 27.864124619867653, 32.04533277032897, 0.17600000835955143, -0.01600000075995922, 0.9760000463575125, 0.0, 0.0, 0.0, 0.0, 0.0, 1.6952354576099913E9, 0.0, 2023-09-20 15:44:17.609
18.0, -1580.5845685233362, 218.47934556147084, 5.738876482006162, 20.148711011279374, 0.17600000835955143, -0.01600000075995922, 0.9760000463575125, 0.0, 0.0, 0.0, 0.0, 0.0, 1.6952354576257432E9, 0.0, 2023-09-20 15:44:17.625
18.0, -1766.029377776198, 223.5356903015636, -11.733936110977083, -18.693889928516, 0.17600000835955143, -0.01600000075995922, 0.9760000463575125, 0.0, 0.0, 0.0, 0.0, 0.0, 1.6952354576257432E9, 0.0, 2023-09-20 15:44:17.625
19.0, -1574.6624369435012, 86.63291252357885, 0.6600923421792686, 2.051335125695914, 0.17600000835955143, -0.01600000075995922, 0.9760000463575125, 0.0, 0.0, 0.0, 0.0, 0.0, 1.6952354576265671E9, 0.0, 2023-09-20 15:44:17.626
19.0, -1330.5049382862635, 83.38667936204001, 28.986094606574625, 38.72479409119114, 0.17600000835955143, -0.01600000075995922, 0.9760000463575125, 0.0, 0.0, 0.0, 0.0, 0.0, 1.6952354576265671E9, 0.0, 2023-09-20 15:44:17.626
20.0, -1102.7730802344158, 150.1588531709276, 10.331473627593368, 21.311819897498935, 0.17600000835955143, -0.01600000075995922, 0.9760000463575125, 0.0, 0.0, 0.0, 0.0, 0.0, 1.695235457640126E9, 0.0, 2023-09-20 15:44:17.640
20.0, -1279.7096170880832, 185.46350875264034, -18.476975731085986, -19.18755672266707, 0.17600000835955143, -0.01600000075995922, 0.9760000463575125, 0.0, 0.0, 0.0, 0.0, 0.0, 1.695235457640126E9, 0.0, 2023-09-20 15:44:17.640
21.0, -1508.9299553222954, 57.585109567735344, 2.010196226183325, 2.821754516568035, 0.17600000835955143, -0.01600000075995922, 0.9760000463575125, 0.0, 0.0, 0.0, 0.0, 0.0, 1.6952354576557457E9, 0.0, 2023-09-20 15:44:17.655
21.0, -1339.5218370794319, -135.70974969211966, 26.891750631388277, 37.011919911485165, 0.17600000835955143, -0.01600000075995922, 0.9760000463575125, 0.0, 0.0, 0.0, 0.0, 0.0, 1.6952354576557457E9, 0.0, 2023-09-20 15:44:17.655
22.0, -1116.857543467544, -204.05268148239702, 7.257275864016265, 19.355852220673114, 0.17600000835955143, -0.01600000075995922, 0.9760000463575125, 0.0, 0.0, 0.0, 0.0, 0.0, 1.6952354576565547E9, 0.0, 2023-09-20 15:44:17.656
22.0, -1318.391402329784, 25.324732549954206, -15.627171964850277, -21.779307391960174, 0.17600000835955143, -0.01600000075995922, 0.9760000463575125, 0.0, 0.0, 0.0, 0.0, 0.0, 1.6952354576565547E9, 0.0, 2023-09-20 15:44:17.656
23.0, -1542.1103477291763, -41.25296646123752, 4.456090797204524, -0.37212004559114575, 0.17600000835955143, -0.01600000075995922, 0.9760000463575125, 0.0, 0.0, 0.0, 0.0, 0.0, 1.6952354576702092E9, 0.0, 2023-09-20 15:44:17.670
23.0, -1356.512202578131, -272.5751284705475, 29.21422850387171, 42.71900724386796, 0.17600000835955143, -0.01600000075995922, 0.9760000463575125, 0.0, 0.0, 0.0, 0.0, 0.0, 1.6952354576702092E9, 0.0, 2023-09-20 15:44:17.670
24.0, -1113.0054465131834, -310.32193872332573, 10.181877629365772, 20.156190811190754, 0.17600000835955143, -0.01600000075995922, 0.9760000463575125, 0.0, 0.0, 0.0, 0.0, 0.0, 1.6952354576857457E9, 0.0, 2023-09-20 15:44:17.685
24.0, -1335.733318424318, -440.6611920790747, -14.31820698035881, -19.1015390236862, 0.17600000835955143, -0.01600000075995922, 0.9760000463575125, 0.0, 0.0, 0.0, 0.0, 0.0, 1.6952354576857457E9, 0.0, 2023-09-20 15:44:17.685
25.0, -1545.3977197902277, -289.0531276753172, 2.653459018561989, -0.7124509415589273, 0.17600000835955143, -0.01600000075995922, 0.9760000463575125, 0.0, 0.0, 0.0, 0.0, 0.0, 1.6952354576864061E9, 0.0, 2023-09-20 15:44:17.686
25.0, -1786.763383130543, -289.1391453742981, 32.542739464435726, 39.831804478075355, 0.17600000835955143, -0.01600000075995922, 0.9760000463575125, 0.0, 0.0, 0.0, 0.0, 0.0, 1.6952354576864061E9, 0.0, 2023-09-20 15:44:17.686
26.0, -1581.0520560177974, -198.51388964802027, 8.483963049482554, 16.075959959533066, 0.17600000835955143, -0.01600000075995922, 0.9760000463575125, 0.0, 0.0, 0.0, 0.0, 0.0, 1.6952354577002594E9, 0.0, 2023-09-20 15:44:17.700
26.0, -1781.1273538973182, -387.5882718078792, -14.508941878098994, -23.48096187179908, 0.17600000835955143, -0.01600000075995922, 0.9760000463575125, 0.0, 0.0, 0.0, 0.0, 0.0, 1.6952354577002594E9, 0.0, 2023-09-20 15:44:17.700
27.0, -2020.3481846130453, -355.19325839169323, 2.930211615283042, -2.4402847210876644, 0.17600000835955143, -0.01600000075995922, 0.9760000463575125, 0.0, 0.0, 0.0, 0.0, 0.0, 1.6952354577157753E9, 0.0, 2023-09-20 15:44:17.715
27.0, -2253.725421648007, -303.45174250472337, 28.929996107239276, 41.006133064161986, 0.17600000835955143, -0.01600000075995922, 0.9760000463575125, 0.0, 0.0, 0.0, 0.0, 0.0, 1.6952354577157753E9, 0.0, 2023-09-20 15:44:17.715
28.0, -2087.772970964201, -320.2289337059483, 7.85939975688234, 20.197329710703343, 0.17600000835955143, -0.01600000075995922, 0.9760000463575125, 0.0, 0.0, 0.0, 0.0, 0.0, 1.6952354577166092E9, 0.0, 2023-09-20 15:44:17.716
28.0, -1889.5994122121483, -332.6678409585729, -20.38432470848784, -21.5100345951505, 0.17600000835955143, -0.01600000075995922, 0.9760000463575125, 0.0, 0.0, 0.0, 0.0, 0.0, 1.6952354577166092E9, 0.0, 2023-09-20 15:44:17.716
29.0, -2032.4542407696135, -380.64701749011874, 1.40433243336156, -4.168118500616401, 0.17600000835955143, -0.01600000075995922, 0.9760000463575125, 0.0, 0.0, 0.0, 0.0, 0.0, 1.6952354577301283E9, 0.0, 2023-09-20 15:44:17.730
29.0, -1812.6734100235626, -342.69451273977757, 28.496167712379247, 39.95522117661312, 0.17600000835955143, -0.01600000075995922, 0.9760000463575125, 0.0, 0.0, 0.0, 0.0, 0.0, 1.6952354577301283E9, 0.0, 2023-09-20 15:44:17.730
30.0, -1642.4649531901814, -259.0516502307728, 12.448257002513856, 21.349218897055835, 0.17600000835955143, -0.01600000075995922, 0.9760000463575125, 0.0, 0.0, 0.0, 0.0, 0.0, 1.695235457745823E9, 0.0, 2023-09-20 15:44:17.745
30.0, -1824.4914938835427, -492.2007533684373, -14.363085779827088, -21.50255479523912, 0.17600000835955143, -0.01600000075995922, 0.9760000463575125, 0.0, 0.0, 0.0, 0.0, 0.0, 1.695235457745823E9, 0.0, 2023-09-20 15:44:17.745
31.0, -2026.2011280437, -471.09275801852345, 4.336413998622447, -6.071727578062564, 0.17600000835955143, -0.01600000075995922, 0.9760000463575125, 0.0, 0.0, 0.0, 0.0, 0.0, 1.6952354577466617E9, 0.0, 2023-09-20 15:44:17.746
31.0, -1824.861743979156, -418.77903743833303, 25.50424774782732, 41.447441258933395, 0.17600000835955143, -0.01600000075995922, 0.9760000463575125, 0.0, 0.0, 0.0, 0.0, 0.0, 1.6952354577466617E9, 0.0, 2023-09-20 15:44:17.746
32.0, -2058.9046832062304, -212.12712548673153, 13.443070390727371, 21.442716395948082, 0.17600000835955143, -0.01600000075995922, 0.9760000463575125, 0.0, 0.0, 0.0, 0.0, 0.0, 1.695235457760095E9, 0.0, 2023-09-20 15:44:17.760
32.0, -2257.981427797582, -236.08118470292538, -18.409657531883568, -24.486994959879667, 0.17600000835955143, -0.01600000075995922, 0.9760000463575125, 0.0, 0.0, 0.0, 0.0, 0.0, 1.695235457760095E9, 0.0, 2023-09-20 15:44:17.760
33.0, -2436.8215737286955, -419.3549820315093, 2.5898807193152606, -5.073174289893359, 0.17600000835955143, -0.01600000075995922, 0.9760000463575125, 0.0, 0.0, 0.0, 0.0, 0.0, 1.6952354577758236E9, 0.0, 2023-09-20 15:44:17.775
33.0, -2234.8538864715956, -243.65822201315314, 32.10517116962001, 41.99346665246412, 0.17600000835955143, -0.01600000075995922, 0.9760000463575125, 0.0, 0.0, 0.0, 0.0, 0.0, 1.6952354577758236E9, 0.0, 2023-09-20 15:44:17.775
34.0, -2479.0431742784567, -373.3916115760803, 12.059307407122105, 15.271881469059736, 0.17600000835955143, -0.01600000075995922, 0.9760000463575125, 0.0, 0.0, 0.0, 0.0, 0.0, 1.6952354577766747E9, 0.0, 2023-09-20 15:44:17.776
34.0, -2250.153817190323, -356.5321425758302, -21.08742590015754, -27.329318926203996, 0.17600000835955143, -0.01600000075995922, 0.9760000463575125, 0.0, 0.0, 0.0, 0.0, 0.0, 1.6952354577766747E9, 0.0, 2023-09-20 15:44:17.776
35.0, -2026.4891003402881, -357.0519886696711, -2.5861408193595707, -7.571427460294217, 0.17600000835955143, -0.01600000075995922, 0.9760000463575125, 0.0, 0.0, 0.0, 0.0, 0.0, 1.6952354577900949E9, 0.0, 2023-09-20 15:44:17.790
35.0, -2190.756726094056, -293.2904343251139, 27.392897225450724, 34.27805304387584, 0.17600000835955143, -0.01600000075995922, 0.9760000463575125, 0.0, 0.0, 0.0, 0.0, 0.0, 1.6952354577900949E9, 0.0, 2023-09-20 15:44:17.790
36.0, -2424.8819431201555, -139.38981124851853, 15.06618697149679, 24.33365906169638, 0.17600000835955143, -0.01600000075995922, 0.9760000463575125, 0.0, 0.0, 0.0, 0.0, 0.0, 1.6952354578058164E9, 0.0, 2023-09-20 15:44:17.805
36.0, -2482.201519791037, -160.7035010959953, -17.758914939593524, -28.163316616322845, 0.17600000835955143, -0.01600000075995922, 0.9760000463575125, 0.0, 0.0, 0.0, 0.0, 0.0, 1.6952354578058164E9, 0.0, 2023-09-20 15:44:17.805
37.0, -2302.510546620004, 31.839638272766024, 1.5988072310574353, -8.27452865196392, 0.17600000835955143, -0.01600000075995922, 0.9760000463575125, 0.0, 0.0, 0.0, 0.0, 0.0, 1.6952354578066883E9, 0.0, 2023-09-20 15:44:17.806
37.0, -2261.493193855975, -65.77549047069624, 29.393743701744825, 38.91926888888702, 0.17600000835955143, -0.01600000075995922, 0.9760000463575125, 0.0, 0.0, 0.0, 0.0, 0.0, 1.6952354578066883E9, 0.0, 2023-09-20 15:44:17.806
38.0, -2125.5010817172006, -45.467833711300045, 10.974736419972032, 16.382631755899638, 0.17600000835955143, -0.01600000075995922, 0.9760000463575125, 0.0, 0.0, 0.0, 0.0, 0.0, 1.6952354578201752E9, 0.0, 2023-09-20 15:44:17.820
38.0, -2176.113147817552, -50.0043323575519, -17.88981143804267, -26.457922236528248, 0.17600000835955143, -0.01600000075995922, 0.9760000463575125, 0.0, 0.0, 0.0, 0.0, 0.0, 1.6952354578201752E9, 0.0, 2023-09-20 15:44:17.820
39.0, -2267.450854485389, -238.24845672724769, 0.9966833381913602, -6.2587225758470595, 0.17600000835955143, -0.01600000075995922, 0.9760000463575125, 0.0, 0.0, 0.0, 0.0, 0.0, 1.6952354578357697E9, 0.0, 2023-09-20 15:44:17.835
39.0, -2446.8650750597008, -323.187194570899, 30.216521691996604, 39.19602148560807, 0.17600000835955143, -0.01600000075995922, 0.9760000463575125, 0.0, 0.0, 0.0, 0.0, 0.0, 1.6952354578357697E9, 0.0, 2023-09-20 15:44:17.835
40.0, -2474.936764127109, -355.26431649085134, 6.958083867561072, 22.145817587617785, 0.17600000835955143, -0.01600000075995922, 0.9760000463575125, 0.0, 0.0, 0.0, 0.0, 0.0, 1.695235457836668E9, 0.0, 2023-09-20 15:44:17.836
40.0, -2496.8862369670533, -242.3716964283958, -17.635498241055757, -24.142924163956195, 0.17600000835955143, -0.01600000075995922, 0.9760000463575125, 0.0, 0.0, 0.0, 0.0, 0.0, 1.695235457836668E9, 0.0, 2023-09-20 15:44:17.836
41.0, -2701.5279526924714, -161.36359343817458, 1.7259638295508921, -8.973889943677932, 0.17600000835955143, -0.01600000075995922, 0.9760000463575125, 0.0, 0.0, 0.0, 0.0, 0.0, 1.695235457850112E9, 0.0, 2023-09-20 15:44:17.850
41.0, -2461.3197883884422, 44.79465171927586, 29.13943050475791, 38.9641476883553, 0.17600000835955143, -0.01600000075995922, 0.9760000463575125, 0.0, 0.0, 0.0, 0.0, 0.0, 1.695235457850112E9, 0.0, 2023-09-20 15:44:17.850
42.0, -2278.4330707052723, 208.68828747747466, 12.365979203488678, 20.541400506626815, 0.17600000835955143, -0.01600000075995922, 0.9760000463575125, 0.0, 0.0, 0.0, 0.0, 0.0, 1.6952354578657815E9, 0.0, 2023-09-20 15:44:17.865
42.0, -2452.8414351888932, 54.24163900734857, -18.458276231307536, -24.999361253809184, 0.17600000835955143, -0.01600000075995922, 0.9760000463575125, 0.0, 0.0, 0.0, 0.0, 0.0, 1.6952354578657815E9, 0.0, 2023-09-20 15:44:17.865
43.0, -2560.832916359417, -22.29915348580107, -0.925625239033252, -5.555621384177357, 0.17600000835955143, -0.01600000075995922, 0.9760000463575125, 0.0, 0.0, 0.0, 0.0, 0.0, 1.6952354578666952E9, 0.0, 2023-09-20 15:44:17.866
43.0, -2785.9262749925256, 84.15335885295644, 30.710188486147672, 40.47880717040971, 0.17600000835955143, -0.01600000075995922, 0.9760000463575125, 0.0, 0.0, 0.0, 0.0, 0.0, 1.6952354578666952E9, 0.0, 2023-09-20 15:44:17.866
44.0, -2682.583489466924, 302.33538236794993, 13.48794919019565, 23.724055368918926, 0.17600000835955143, -0.01600000075995922, 0.9760000463575125, 0.0, 0.0, 0.0, 0.0, 0.0, 1.6952354578800797E9, 0.0, 2023-09-20 15:44:17.880
44.0, -2860.986067103222, 149.96063847327605, -22.097198888193816, -30.526933388318866, 0.17600000835955143, -0.01600000075995922, 0.9760000463575125, 0.0, 0.0, 0.0, 0.0, 0.0, 1.6952354578800797E9, 0.0, 2023-09-20 15:44:17.880
45.0, -3026.8225808884017, 22.8077798797749, 0.21130434749647975, -5.248949587810785, 0.17600000835955143, -0.01600000075995922, 0.9760000463575125, 0.0, 0.0, 0.0, 0.0, 0.0, 1.6952354578957095E9, 0.0, 2023-09-20 15:44:17.895
45.0, -2812.0606958828866, 109.11719105718657, 28.74300110945478, 42.258999549318105, 0.17600000835955143, -0.01600000075995922, 0.9760000463575125, 0.0, 0.0, 0.0, 0.0, 0.0, 1.6952354578957095E9, 0.0, 2023-09-20 15:44:17.895
46.0, -2615.3999266629107, 135.28527104714885, 12.975582896266133, 19.741061916109174, 0.17600000835955143, -0.01600000075995922, 0.9760000463575125, 0.0, 0.0, 0.0, 0.0, 0.0, 1.6952354578967729E9, 0.0, 2023-09-20 15:44:17.896
46.0, -2382.7332706195302, 219.9958749935031, -15.309280468616635, -31.910696371924132, 0.17600000835955143, -0.01600000075995922, 0.9760000463575125, 0.0, 0.0, 0.0, 0.0, 0.0, 1.6952354578967729E9, 0.0, 2023-09-20 15:44:17.896
47.0, -2528.0751326475292, 178.1407846393995, 2.4664640207774937, -8.061354354489595, 0.17600000835955143, -0.01600000075995922, 0.9760000463575125, 0.0, 0.0, 0.0, 0.0, 0.0, 1.6952354579100585E9, 0.0, 2023-09-20 15:44:17.910
47.0, -2618.2216811794788, 341.9558824985288, 31.439468977507204, 34.607164239976555, 0.17600000835955143, -0.01600000075995922, 0.9760000463575125, 0.0, 0.0, 0.0, 0.0, 0.0, 1.6952354579100585E9, 0.0, 2023-09-20 15:44:17.910
48.0, -2826.6463057100773, 304.8598148380406, 13.5066486899741, 18.821046527009457, 0.17600000835955143, -0.01600000075995922, 0.9760000463575125, 0.0, 0.0, 0.0, 0.0, 0.0, 1.6952354579257169E9, 0.0, 2023-09-20 15:44:17.925
48.0, -2686.590792269446, 546.4704416254535, -14.834313174244016, -34.210734844673425, 0.17600000835955143, -0.01600000075995922, 0.9760000463575125, 0.0, 0.0, 0.0, 0.0, 0.0, 1.6952354579257169E9, 0.0, 2023-09-20 15:44:17.925
49.0, -2687.0881989635527, 547.6597298113629, 1.4716506325639784, -9.45633703796193, 0.17600000835955143, -0.01600000075995922, 0.9760000463575125, 0.0, 0.0, 0.0, 0.0, 0.0, 1.6952354579266691E9, 0.0, 2023-09-20 15:44:17.926
49.0, -2902.966444105841, 456.39121129270643, 31.394590178038925, 39.891642877366394, 0.17600000835955143, -0.01600000075995922, 0.9760000463575125, 0.0, 0.0, 0.0, 0.0, 0.0, 1.6952354579266691E9, 0.0, 2023-09-20 15:44:17.926
50.0, -2739.441188493278, 647.4103414295241, 14.897891473490745, 19.18007692275569, 0.17600000835955143, -0.01600000075995922, 0.9760000463575125, 0.0, 0.0, 0.0, 0.0, 0.0, 1.6952354579400756E9, 0.0, 2023-09-20 15:44:17.940
50.0, -2904.428744988516, 637.2078943504021, -20.70969600463286, -35.23172753257677, 0.17600000835955143, -0.01600000075995922, 0.9760000463575125, 0.0, 0.0, 0.0, 0.0, 0.0, 1.6952354579400756E9, 0.0, 2023-09-20 15:44:17.940
51.0, -3055.3131387508474, 472.31570530403405, -0.5703347432427108, -11.715236611198634, 0.17600000835955143, -0.01600000075995922, 0.9760000463575125, 0.0, 0.0, 0.0, 0.0, 0.0, 1.6952354579558196E9, 0.0, 2023-09-20 15:44:17.955
51.0, -2868.6528620123863, 556.7663862034678, 31.506787176709622, 43.22763363784179, 0.17600000835955143, -0.01600000075995922, 0.9760000463575125, 0.0, 0.0, 0.0, 0.0, 0.0, 1.6952354579558196E9, 0.0, 2023-09-20 15:44:17.955
52.0, -3090.3017727863044, 692.0348277008161, 12.986802596133202, 18.791127327363938, 0.1600000075995922, -0.01600000075995922, 0.9760000463575125, 0.0, 0.0, 0.0, 0.0, 0.0, 1.6952354579566505E9, 0.0, 2023-09-20 15:44:17.956
52.0, -3308.134115655441, 584.3070094771683, -22.029880688991398, -31.282393179368228, 0.1600000075995922, -0.01600000075995922, 0.9760000463575125, 0.0, 0.0, 0.0, 0.0, 0.0, 1.6952354579566505E9, 0.0, 2023-09-20 15:44:17.956
53.0, -3503.141849095002, 449.3564594760537, 1.0527818375267088, -5.753836081828922, 0.1600000075995922, -0.01600000075995922, 0.9760000463575125, 0.0, 0.0, 0.0, 0.0, 0.0, 1.6952354579700716E9, 0.0, 2023-09-20 15:44:17.970
53.0, -3724.824418968521, 572.0064785229042, 31.431989177595824, 37.69258170342073, 0.1600000075995922, -0.01600000075995922, 0.9760000463575125, 0.0, 0.0, 0.0, 0.0, 0.0, 1.6952354579700716E9, 0.0, 2023-09-20 15:44:17.970
54.0, -3582.2538228076883, 568.1319421688095, 16.397591355722398, 21.278160797897726, 0.1600000075995922, -0.01600000075995922, 0.9760000463575125, 0.0, 0.0, 0.0, 0.0, 0.0, 1.6952354579866045E9, 0.0, 2023-09-20 15:44:17.986
54.0, -3468.8675359510817, 514.5653551034629, -20.406764108221978, -31.420769477728754, 0.1600000075995922, -0.01600000075995922, 0.9760000463575125, 0.0, 0.0, 0.0, 0.0, 0.0, 1.6952354579866045E9, 0.0, 2023-09-20 15:44:17.986
55.0, -3632.74434215948, 525.684077671729, -4.269095799420029, -6.7411696701310575, 0.1600000075995922, -0.01600000075995922, 0.9760000463575125, 0.0, 0.0, 0.0, 0.0, 0.0, 1.6952354579871547E9, 0.0, 2023-09-20 15:44:17.987
55.0, -3825.8652960713953, 643.9434541705996, 31.62272407533601, 43.070557839702815, 0.1600000075995922, -0.01600000075995922, 0.9760000463575125, 0.0, 0.0, 0.0, 0.0, 0.0, 1.6952354579871547E9, 0.0, 2023-09-20 15:44:17.987
56.0, -3913.752945030108, 754.8726267563179, 15.978722560685128, 17.94217003742233, 0.1600000075995922, -0.01600000075995922, 0.9760000463575125, 0.0, 0.0, 0.0, 0.0, 0.0, 1.6952354580001066E9, 0.0, 2023-09-20 15:44:18.000
56.0, -3815.629189892672, 688.2313494458795, -18.562993430066854, -29.94724889518693, 0.1600000075995922, -0.01600000075995922, 0.9760000463575125, 0.0, 0.0, 0.0, 0.0, 0.0, 1.6952354580001066E9, 0.0, 2023-09-20 15:44:18.000
57.0, -3661.616369817406, 568.6256089629605, -5.267649087589234, -12.152804906014353, 0.1600000075995922, -0.01600000075995922, 0.9760000463575125, 0.0, 0.0, 0.0, 0.0, 0.0, 1.69523545801577E9, 0.0, 2023-09-20 15:44:18.015
57.0, -3804.7797401212156, 696.0626999530941, 36.974520911928266, 43.95317422924563, 0.1600000075995922, -0.01600000075995922, 0.9760000463575125, 0.0, 0.0, 0.0, 0.0, 0.0, 1.69523545801577E9, 0.0, 2023-09-20 15:44:18.015
58.0, -3945.2391627570614, 752.8530807802454, 15.690750264097005, 17.762654839549214, 0.1600000075995922, -0.01600000075995922, 0.9760000463575125, 0.0, 0.0, 0.0, 0.0, 0.0, 1.6952354580165627E9, 0.0, 2023-09-20 15:44:18.016
58.0, -3772.9531914982945, 958.4559507942759, -21.47637549554929, -35.400023030582815, 0.1600000075995922, -0.01600000075995922, 0.9760000463575125, 0.0, 0.0, 0.0, 0.0, 0.0, 1.6952354580165627E9, 0.0, 2023-09-20 15:44:18.016
59.0, -3615.652999361977, 972.0953659326769, 2.0027164262719452, -14.026494783814996, 0.1600000075995922, -0.01600000075995922, 0.9760000463575125, 0.0, 0.0, 0.0, 0.0, 0.0, 1.6952354580300536E9, 0.0, 2023-09-20 15:44:18.030
59.0, -3375.336377959233, 736.057190079242, 32.965348159428686, 41.98598685255274, 0.1600000075995922, -0.01600000075995922, 0.9760000463575125, 0.0, 0.0, 0.0, 0.0, 0.0, 1.6952354580300536E9, 0.0, 2023-09-20 15:44:18.030
60.0, -3130.8609878057614, 641.9201682945713, 17.362485544290394, 25.291073450352997, 0.1600000075995922, -0.01600000075995922, 0.9920000471174717, 0.0, 0.0, 0.0, 0.0, 0.0, 1.69523545806173E9, 0.0, 2023-09-20 15:44:18.061
60.0, -2954.7266594925895, 794.2893023393117, -21.424016896169633, -26.37190453754738, 0.1600000075995922, -0.01600000075995922, 0.9920000471174717, 0.0, 0.0, 0.0, 0.0, 0.0, 1.69523545806173E9, 0.0, 2023-09-20 15:44:18.061
61.0, -3090.139087138232, 771.9882789035328, -3.6520123067311943, -12.69509039958939, 0.1600000075995922, 0.01600000075995922, 0.9920000471174717, 0.0, 0.0, 0.0, 0.0, 0.0, 1.6952354580621936E9, 0.0, 2023-09-20 15:44:18.062
61.0, -3231.4811261636205, 782.1795062827878, 34.663262739311904, 38.45552129438147, 0.1600000075995922, 0.01600000075995922, 0.9920000471174717, 0.0, 0.0, 0.0, 0.0, 0.0, 1.6952354580621936E9, 0.0, 2023-09-20 15:44:18.062
62.0, -3018.9033427322283, 835.8769898465835, 15.825386662501842, 19.51666791876778, 0.1600000075995922, 0.01600000075995922, 0.9920000471174717, 0.0, 0.0, 0.0, 0.0, 0.0, 1.6952354580629108E9, 0.0, 2023-09-20 15:44:18.062
62.0, -2903.654585697688, 650.5425076424144, -20.436683307867497, -32.75591376191005, 0.1600000075995922, 0.01600000075995922, 0.9920000471174717, 0.0, 0.0, 0.0, 0.0, 0.0, 1.6952354580629108E9, 0.0, 2023-09-20 15:44:18.062
63.0, -3124.5050278310664, 882.5490713436157, 3.9138053036294878, -9.564794136676937, 0.1600000075995922, 0.01600000075995922, 0.9920000471174717, 0.0, 0.0, 0.0, 0.0, 0.0, 1.695235458075838E9, 0.0, 2023-09-20 15:44:18.075
63.0, -3209.913123119157, 977.4004140198231, 34.11723734578118, 41.088410863187164, 0.1600000075995922, 0.01600000075995922, 0.9920000471174717, 0.0, 0.0, 0.0, 0.0, 0.0, 1.695235458075838E9, 0.0, 2023-09-20 15:44:18.075
64.0, -3114.195993603207, 979.5583362942562, 16.446210055146366, 18.181523634586483, 0.1600000075995922, 0.01600000075995922, 0.9920000471174717, 0.0, 0.0, 0.0, 0.0, 0.0, 1.695235458076619E9, 0.0, 2023-09-20 15:44:18.076
64.0, -2880.7738777687773, 1089.09439614648, -23.028433977160603, -34.12471714569256, 0.1600000075995922, 0.01600000075995922, 0.9920000471174717, 0.0, 0.0, 0.0, 0.0, 0.0, 1.695235458076619E9, 0.0, 2023-09-20 15:44:18.076
65.0, -2968.9812881737016, 899.4478092934005, -1.2771758348681033, -10.791481322143227, 0.1600000075995922, 0.01600000075995922, 0.9920000471174717, 0.0, 0.0, 0.0, 0.0, 0.0, 1.695235458090129E9, 0.0, 2023-09-20 15:44:18.090
65.0, -2750.38974561356, 752.2509568873793, 33.459014953579754, 41.72793375561014, 0.1600000075995922, 0.01600000075995922, 0.9920000471174717, 0.0, 0.0, 0.0, 0.0, 0.0, 1.695235458090129E9, 0.0, 2023-09-20 15:44:18.090
66.0, -2600.668460737448, 912.4103025398217, 15.720669463742524, 18.71258942829445, 0.1600000075995922, 0.01600000075995922, 0.9920000471174717, 0.0, 0.0, 0.0, 0.0, 0.0, 1.6952354581058052E9, 0.0, 2023-09-20 15:44:18.105
66.0, -2443.760958096478, 1098.9340729299001, -17.994528636801988, -34.85399763705209, 0.1600000075995922, 0.01600000075995922, 0.9920000471174717, 0.0, 0.0, 0.0, 0.0, 0.0, 1.6952354581058052E9, 0.0, 2023-09-20 15:44:18.105
67.0, -2574.259157200344, 1038.441191146616, -0.7161908415146172, -7.04784146649763, 0.1600000075995922, 0.01600000075995922, 0.9920000471174717, 0.0, 0.0, 0.0, 0.0, 0.0, 1.6952354581066124E9, 0.0, 2023-09-20 15:44:18.106
67.0, -2334.5633591902442, 1084.9655465953983, 34.177075745072216, 42.44225464714691, 0.1600000075995922, 0.01600000075995922, 0.9920000471174717, 0.0, 0.0, 0.0, 0.0, 0.0, 1.6952354581066124E9, 0.0, 2023-09-20 15:44:18.106
68.0, -2189.9769569532946, 1254.035203892272, 13.241115793120116, 18.925763725768775, 0.1600000075995922, 0.01600000075995922, 0.9920000471174717, 0.0, 0.0, 0.0, 0.0, 0.0, 1.6952354581200593E9, 0.0, 2023-09-20 15:44:18.120
68.0, -2250.3258525882848, 1016.6300946050324, -21.9176836903207, -31.383370478171855, 0.1600000075995922, 0.01600000075995922, 0.9920000471174717, 0.0, 0.0, 0.0, 0.0, 0.0, 1.6952354581200593E9, 0.0, 2023-09-20 15:44:18.120
